*FILE_COMMENT ""
*FILE_MD5 ""
*FILE_MEMO ""
*FILE_OPERATOR "Administrator"
*FILE_PACKAGE_NAME ""
*FILE_PART_ID "GeneralMeasurement(BB)"
*FILE_SAMPLE ""
*FILE_SYSTEM_NAME "SmartLab"
*FILE_TYPE "RAS_RAW"
*FILE_USERGROUP "Administrators"
*FILE_VERSION "1"
*HW_ATTACHMENT_ID "ATT0025"
*HW_ATTACHMENT_NAME "Standard"
*HW_ATTACHMENT_NAME_INTERNAL "Standard"
*HW_COUNTER_ID-0 "CUT0054"
*HW_COUNTER_ID-2 "CMC0020"
*HW_COUNTER_MONOCHRO_ID "CMC0020"
*HW_COUNTER_MONOCHRO_NAME "None"
*HW_COUNTER_MONOCHRO_NAME_INTERNAL "None"
*HW_COUNTER_NAME_INTERNAL "HyPix400(V)"
*HW_COUNTER_NAME-0 "HyPix400(V)"
*HW_COUNTER_NAME-1 "None"
*HW_COUNTER_NAME-2 "None"
*HW_COUNTER_PIXEL_SIZE "0.1"
*HW_COUNTER_SELECT_NAME "HyPix400(V)"
*HW_EXTERNAL_CONTROLLER_NAME "None"
*HW_EXTERNAL_CONTROLLER_NAME_INTERNAL "None"
*HW_GONIOMETER_ID "GON0021"
*HW_GONIOMETER_NAME "Standard"
*HW_GONIOMETER_NAME_INTERNAL "Standard"
*HW_GONIOMETER_RADIUS-0 "90.0"
*HW_GONIOMETER_RADIUS-1 "114.0"
*HW_GONIOMETER_RADIUS-2 "190.0"
*HW_GONIOMETER_RADIUS-3 "300.0"
*HW_GONIOMETER_RADIUS-4 "187.0"
*HW_GONIOMETER_RADIUS-5 "300.0"
*HW_GONIOMETER_RADIUS-6 "113.0"
*HW_GONIOMETER_RADIUS-7 "331.0"
*HW_I_CBO_ID "CBO0023"
*HW_I_CBO_NAME "Open-BB"
*HW_I_CBO_NAME_INTERNAL "Open-BB"
*HW_I_MONOCHRO_ID "ISO0021"
*HW_I_MONOCHRO_NAME "IPS_adaptor"
*HW_I_MONOCHRO_NAME_INTERNAL "IPS_adaptor"
*HW_I_OPT_ID-1 "CBO0023"
*HW_I_OPT_ID-2 "ISL0021"
*HW_I_PRIMARY_NAME_INTERNAL "Manual"
*HW_I_SLIT_ID "ISL0021"
*HW_I_SLIT_NAME "Auto"
*HW_I_SLIT_NAME_INTERNAL "Auto"
*HW_R_ATTENUATER_AUTOMODE "0"
*HW_R_ATTENUATER_ID "ATN0020"
*HW_R_ATTENUATER_NAME "No_unit"
*HW_R_ATTENUATOR_NAME_INTERNAL "No_unit"
*HW_R_OPT_ID-1 "RCR0022"
*HW_R_OPT_ID-2 "RSO0021"
*HW_R_OPT_ID-3 "RRS0022"
*HW_R_OPT_ID-4 "ATN0020"
*HW_R_ROD_ID "RCR0022"
*HW_R_ROD_NAME "ROD_adaptor"
*HW_R_ROD_NAME_INTERNAL "ROD_adaptor"
*HW_R_RPS_ID "RSO0021"
*HW_R_RPS_NAME "RPS_adaptor"
*HW_R_RPS_NAME_INTERNAL "RPS_adaptor"
*HW_R_RS_ID "RRS0022"
*HW_R_RS_NAME "Virtual"
*HW_R_RS_NAME_INTERNAL "Virtual"
*HW_R_SS_NAME_INTERNAL "FilterBoxForHyPix"
*HW_ROBOT_NAME "No_unit"
*HW_ROBOT_NAME_INTERNAL "No_unit"
*HW_SAMPLE_CAMERA_NAME "None"
*HW_SAMPLE_CAMERA_NAME_INTERNAL "None"
*HW_SAMPLE_HOLDER_NAME_INTERNAL "Z_Standard"
*HW_SAMPLE_NAME "PowderSample"
*HW_SAMPLE_NAME_INTERNAL "PowderSample"
*HW_SAMPLE_PLATE_NAME "None"
*HW_SAMPLE_PLATE_NAME_INTERNAL "None"
*HW_SAMPLE_SPACER_NAME "None"
*HW_SAMPLE_SPACER_NAME_INTERNAL "None"
*HW_USERINFO_CATALOG_NO ""
*HW_USERINFO_INSTRUMENT_ID ""
*HW_USERINFO_INSTRUMENT_NAME ""
*HW_USERINFO_INSTRUMENT_NO ""
*HW_USERINFO_MODEL ""
*HW_USERINFO_ORDER_NO ""
*HW_USERINFO_SERIAL_NO ""
*HW_USERINFO_VERIFY_INSTRUMENT_ID "00-07-fe-01-2d-7e"
*HW_VER_RCD_COUNTER_UNIT "N/A"
*HW_VER_RCD_CPU "3.4.0"
*HW_VER_RCD_FPGA "1.2.3"
*HW_VER_RCD_GONIO_UNIT "7.0.0"
*HW_VER_RCD_INCIDENT_UNIT "7.0.0"
*HW_VER_RCD_RECEIVING_UNIT "7.0.0"
*HW_VER_RCD_TYPE "RINC"
*HW_VER_XGC_CPU "3.4.0"
*HW_VER_XGC_CW "4.0.0"
*HW_VER_XGC_HV "4.0.0"
*HW_VER_XGC_RS1 "4.0.0"
*HW_VER_XGC_RS2 "N/A"
*HW_VER_XGC_RT "N/A"
*HW_VER_XGC_TYPE "RINC"
*HW_XG_CURRENT_UNIT "mA"
*HW_XG_FOCUS "0.4mm x 8mm"
*HW_XG_FOCUS_TYPE "Fine"
*HW_XG_TARGET_ATOMIC_NUMBER "29"
*HW_XG_TARGET_NAME "Cu"
*HW_XG_TYPE "Hermetic"
*HW_XG_VOLTAGE_UNIT "kV"
*HW_XG_WAVE_LENGTH_ALPHA1 "1.540593"
*HW_XG_WAVE_LENGTH_ALPHA2 "1.544414"
*HW_XG_WAVE_LENGTH_BETA "1.392246"
*HW_XG_WAVE_LENGTH_UNIT "Angstrom"
*MEAS_COND_AXIS_NAME_INTERNAL-0 "ThetaS"
*MEAS_COND_AXIS_NAME_INTERNAL-1 "ThetaD"
*MEAS_COND_AXIS_NAME_INTERNAL-10 "IncidentSlitBox"
*MEAS_COND_AXIS_NAME_INTERNAL-11 "IncidentSlitBox"
*MEAS_COND_AXIS_NAME_INTERNAL-12 "IncidentSlitBox"
*MEAS_COND_AXIS_NAME_INTERNAL-13 "Zs"
*MEAS_COND_AXIS_NAME_INTERNAL-14 "IncidentAxdSlit"
*MEAS_COND_AXIS_NAME_INTERNAL-15 "IncidentAxdSlit"
*MEAS_COND_AXIS_NAME_INTERNAL-16 "IncidentAxdSlit"
*MEAS_COND_AXIS_NAME_INTERNAL-17 "Z"
*MEAS_COND_AXIS_NAME_INTERNAL-18 "DirectBeamStop"
*MEAS_COND_AXIS_NAME_INTERNAL-19 "KnifeEdge"
*MEAS_COND_AXIS_NAME_INTERNAL-2 "TwoTheta"
*MEAS_COND_AXIS_NAME_INTERNAL-20 "Filter"
*MEAS_COND_AXIS_NAME_INTERNAL-21 "PSA"
*MEAS_COND_AXIS_NAME_INTERNAL-22 "ReceivingSollerSlit"
*MEAS_COND_AXIS_NAME_INTERNAL-23 "ReceivingSlitBox2"
*MEAS_COND_AXIS_NAME_INTERNAL-24 "ReceivingSlitBox2"
*MEAS_COND_AXIS_NAME_INTERNAL-25 "ReceivingSlitBox2"
*MEAS_COND_AXIS_NAME_INTERNAL-26 "ModuleSensorType"
*MEAS_COND_AXIS_NAME_INTERNAL-27 "GainMode"
*MEAS_COND_AXIS_NAME_INTERNAL-28 "PHA"
*MEAS_COND_AXIS_NAME_INTERNAL-29 "DetectorBeamStop"
*MEAS_COND_AXIS_NAME_INTERNAL-3 "Omega"
*MEAS_COND_AXIS_NAME_INTERNAL-30 "DetectorFilter"
*MEAS_COND_AXIS_NAME_INTERNAL-31 "DedicatedHolder"
*MEAS_COND_AXIS_NAME_INTERNAL-32 "Target_TargetTime"
*MEAS_COND_AXIS_NAME_INTERNAL-33 "Target_XrayOnTime"
*MEAS_COND_AXIS_NAME_INTERNAL-34 "Target_TMPTime"
*MEAS_COND_AXIS_NAME_INTERNAL-35 "Target_RPTime"
*MEAS_COND_AXIS_NAME_INTERNAL-36 "Target_FilamentTime"
*MEAS_COND_AXIS_NAME_INTERNAL-37 "Target_IG"
*MEAS_COND_AXIS_NAME_INTERNAL-38 "Target_GP"
*MEAS_COND_AXIS_NAME_INTERNAL-39 "Target_FC"
*MEAS_COND_AXIS_NAME_INTERNAL-4 "TwoThetaTheta"
*MEAS_COND_AXIS_NAME_INTERNAL-40 "HVPS_Bias"
*MEAS_COND_AXIS_NAME_INTERNAL-41 "HVPS_HVPSTime"
*MEAS_COND_AXIS_NAME_INTERNAL-42 "HVPS_Type1Time"
*MEAS_COND_AXIS_NAME_INTERNAL-43 "HVPS_Type2Time"
*MEAS_COND_AXIS_NAME_INTERNAL-44 "HVPS_Type3Time"
*MEAS_COND_AXIS_NAME_INTERNAL-45 "CW_IERTime"
*MEAS_COND_AXIS_NAME_INTERNAL-46 "CW_ECTime"
*MEAS_COND_AXIS_NAME_INTERNAL-47 "CW_Flow1"
*MEAS_COND_AXIS_NAME_INTERNAL-48 "CW_Temperature1"
*MEAS_COND_AXIS_NAME_INTERNAL-49 "CW_Pressure1"
*MEAS_COND_AXIS_NAME_INTERNAL-5 "TwoThetaOmega"
*MEAS_COND_AXIS_NAME_INTERNAL-50 "CW_PressureIn"
*MEAS_COND_AXIS_NAME_INTERNAL-51 "CW_PressureOut"
*MEAS_COND_AXIS_NAME_INTERNAL-52 "CW_Flow2"
*MEAS_COND_AXIS_NAME_INTERNAL-53 "CW_Temperature2"
*MEAS_COND_AXIS_NAME_INTERNAL-54 "CW_Pressure2"
*MEAS_COND_AXIS_NAME_INTERNAL-55 "RE_EnclosureTemp"
*MEAS_COND_AXIS_NAME_INTERNAL-56 "RE_EnclosureHummidity"
*MEAS_COND_AXIS_NAME_INTERNAL-57 "RE_CabinetTemp"
*MEAS_COND_AXIS_NAME_INTERNAL-58 "RE_RPTemp"
*MEAS_COND_AXIS_NAME_INTERNAL-59 "RE_ShutterAXrayOnTime"
*MEAS_COND_AXIS_NAME_INTERNAL-6 "OmegaTwoTheta"
*MEAS_COND_AXIS_NAME_INTERNAL-60 "RE_ShutterATimes"
*MEAS_COND_AXIS_NAME_INTERNAL-61 "RE_ShutterAOpenCloseTime"
*MEAS_COND_AXIS_NAME_INTERNAL-62 "RE_ShutterACloseOpenTime"
*MEAS_COND_AXIS_NAME_INTERNAL-63 "RE_ShutterBXrayOnTime"
*MEAS_COND_AXIS_NAME_INTERNAL-64 "RE_ShutterBTimes"
*MEAS_COND_AXIS_NAME_INTERNAL-65 "RE_ShutterBOpenCloseTime"
*MEAS_COND_AXIS_NAME_INTERNAL-66 "RE_ShutterBCloseOpenTime"
*MEAS_COND_AXIS_NAME_INTERNAL-67 "RE_XrayWarningRamp"
*MEAS_COND_AXIS_NAME_INTERNAL-68 "RE_ShutterAInstallation"
*MEAS_COND_AXIS_NAME_INTERNAL-69 "RE_ShutterARamp"
*MEAS_COND_AXIS_NAME_INTERNAL-7 "GonioDirectBeamStop"
*MEAS_COND_AXIS_NAME_INTERNAL-70 "RE_ShutterBInstallation"
*MEAS_COND_AXIS_NAME_INTERNAL-71 "RE_ShutterBRamp"
*MEAS_COND_AXIS_NAME_INTERNAL-72 "RE_ExtShutterCLS"
*MEAS_COND_AXIS_NAME_INTERNAL-73 "RE_ExtXrayOFF"
*MEAS_COND_AXIS_NAME_INTERNAL-74 "RE_ExtSafetyCircuit"
*MEAS_COND_AXIS_NAME_INTERNAL-75 "Version_CPU"
*MEAS_COND_AXIS_NAME_INTERNAL-76 "Version_RS1"
*MEAS_COND_AXIS_NAME_INTERNAL-77 "Version_RS2"
*MEAS_COND_AXIS_NAME_INTERNAL-78 "Version_HV"
*MEAS_COND_AXIS_NAME_INTERNAL-79 "Version_CW"
*MEAS_COND_AXIS_NAME_INTERNAL-8 "CBOType"
*MEAS_COND_AXIS_NAME_INTERNAL-80 "Version_RT"
*MEAS_COND_AXIS_NAME_INTERNAL-81 "IncidentPrimary"
*MEAS_COND_AXIS_NAME_INTERNAL-82 "IncidentMonochromator"
*MEAS_COND_AXIS_NAME_INTERNAL-83 "ReceivingOptics"
*MEAS_COND_AXIS_NAME_INTERNAL-84 "CounterMonochromatorKind"
*MEAS_COND_AXIS_NAME_INTERNAL-9 "IncidentSollerSlit"
*MEAS_COND_AXIS_NAME-0 "ThetaS"
*MEAS_COND_AXIS_NAME-1 "ThetaD"
*MEAS_COND_AXIS_NAME-10 "IncidentSlitBox"
*MEAS_COND_AXIS_NAME-11 "IncidentSlitBox-_Axis"
*MEAS_COND_AXIS_NAME-12 "SlitDS"
*MEAS_COND_AXIS_NAME-13 "Zs"
*MEAS_COND_AXIS_NAME-14 "IncidentAxdSlit"
*MEAS_COND_AXIS_NAME-15 "LLS"
*MEAS_COND_AXIS_NAME-16 "DHLSlit"
*MEAS_COND_AXIS_NAME-17 "Z"
*MEAS_COND_AXIS_NAME-18 "DirectBeamStop"
*MEAS_COND_AXIS_NAME-19 "KnifeEdge"
*MEAS_COND_AXIS_NAME-2 "TwoTheta"
*MEAS_COND_AXIS_NAME-20 "Filter"
*MEAS_COND_AXIS_NAME-21 "PSA"
*MEAS_COND_AXIS_NAME-22 "ReceivingSollerSlit"
*MEAS_COND_AXIS_NAME-23 "ReceivingSlitBox2"
*MEAS_COND_AXIS_NAME-24 "ReceivingSlitBox2-_Axis"
*MEAS_COND_AXIS_NAME-25 "SlitRS"
*MEAS_COND_AXIS_NAME-26 "ModuleSensorType"
*MEAS_COND_AXIS_NAME-27 "GainMode"
*MEAS_COND_AXIS_NAME-28 "PHA"
*MEAS_COND_AXIS_NAME-29 "DetectorBeamStop"
*MEAS_COND_AXIS_NAME-3 "Omega"
*MEAS_COND_AXIS_NAME-30 "DetectorFilter"
*MEAS_COND_AXIS_NAME-31 "DedicatedHolder"
*MEAS_COND_AXIS_NAME-32 "Target_TargetTime"
*MEAS_COND_AXIS_NAME-33 "Target_XrayOnTime"
*MEAS_COND_AXIS_NAME-34 "Target_TMPTime"
*MEAS_COND_AXIS_NAME-35 "Target_RPTime"
*MEAS_COND_AXIS_NAME-36 "Target_FilamentTime"
*MEAS_COND_AXIS_NAME-37 "Target_IG"
*MEAS_COND_AXIS_NAME-38 "Target_GP"
*MEAS_COND_AXIS_NAME-39 "Target_FC"
*MEAS_COND_AXIS_NAME-4 "TwoThetaTheta"
*MEAS_COND_AXIS_NAME-40 "HVPS_Bias"
*MEAS_COND_AXIS_NAME-41 "HVPS_HVPSTime"
*MEAS_COND_AXIS_NAME-42 "HVPS_Type1Time"
*MEAS_COND_AXIS_NAME-43 "HVPS_Type2Time"
*MEAS_COND_AXIS_NAME-44 "HVPS_Type3Time"
*MEAS_COND_AXIS_NAME-45 "CW_IERTime"
*MEAS_COND_AXIS_NAME-46 "CW_ECTime"
*MEAS_COND_AXIS_NAME-47 "CW_Flow1"
*MEAS_COND_AXIS_NAME-48 "CW_Temperature1"
*MEAS_COND_AXIS_NAME-49 "CW_Pressure1"
*MEAS_COND_AXIS_NAME-5 "TwoThetaOmega"
*MEAS_COND_AXIS_NAME-50 "CW_PressureIn"
*MEAS_COND_AXIS_NAME-51 "CW_PressureOut"
*MEAS_COND_AXIS_NAME-52 "CW_Flow2"
*MEAS_COND_AXIS_NAME-53 "CW_Temperature2"
*MEAS_COND_AXIS_NAME-54 "CW_Pressure2"
*MEAS_COND_AXIS_NAME-55 "RE_EnclosureTemp"
*MEAS_COND_AXIS_NAME-56 "RE_EnclosureHummidity"
*MEAS_COND_AXIS_NAME-57 "RE_CabinetTemp"
*MEAS_COND_AXIS_NAME-58 "RE_RPTemp"
*MEAS_COND_AXIS_NAME-59 "RE_ShutterAXrayOnTime"
*MEAS_COND_AXIS_NAME-6 "OmegaTwoTheta"
*MEAS_COND_AXIS_NAME-60 "RE_ShutterATimes"
*MEAS_COND_AXIS_NAME-61 "RE_ShutterAOpenCloseTime"
*MEAS_COND_AXIS_NAME-62 "RE_ShutterACloseOpenTime"
*MEAS_COND_AXIS_NAME-63 "RE_ShutterBXrayOnTime"
*MEAS_COND_AXIS_NAME-64 "RE_ShutterBTimes"
*MEAS_COND_AXIS_NAME-65 "RE_ShutterBOpenCloseTime"
*MEAS_COND_AXIS_NAME-66 "RE_ShutterBCloseOpenTime"
*MEAS_COND_AXIS_NAME-67 "RE_XrayWarningRamp"
*MEAS_COND_AXIS_NAME-68 "RE_ShutterAInstallation"
*MEAS_COND_AXIS_NAME-69 "RE_ShutterARamp"
*MEAS_COND_AXIS_NAME-7 "GonioDirectBeamStop"
*MEAS_COND_AXIS_NAME-70 "RE_ShutterBInstallation"
*MEAS_COND_AXIS_NAME-71 "RE_ShutterBRamp"
*MEAS_COND_AXIS_NAME-72 "RE_ExtShutterCLS"
*MEAS_COND_AXIS_NAME-73 "RE_ExtXrayOFF"
*MEAS_COND_AXIS_NAME-74 "RE_ExtSafetyCircuit"
*MEAS_COND_AXIS_NAME-75 "Version_CPU"
*MEAS_COND_AXIS_NAME-76 "Version_RS1"
*MEAS_COND_AXIS_NAME-77 "Version_RS2"
*MEAS_COND_AXIS_NAME-78 "Version_HV"
*MEAS_COND_AXIS_NAME-79 "Version_CW"
*MEAS_COND_AXIS_NAME-8 "CBOType"
*MEAS_COND_AXIS_NAME-80 "Version_RT"
*MEAS_COND_AXIS_NAME-81 "IncidentPrimary"
*MEAS_COND_AXIS_NAME-82 "IncidentMonochromator"
*MEAS_COND_AXIS_NAME-83 "ReceivingOptics"
*MEAS_COND_AXIS_NAME-84 "CounterMonochromatorKind"
*MEAS_COND_AXIS_NAME-9 "IncidentSollerSlit"
*MEAS_COND_AXIS_OFFSET-0 "0"
*MEAS_COND_AXIS_OFFSET-1 "0"
*MEAS_COND_AXIS_OFFSET-10 "0"
*MEAS_COND_AXIS_OFFSET-11 "0"
*MEAS_COND_AXIS_OFFSET-12 "0"
*MEAS_COND_AXIS_OFFSET-13 "0"
*MEAS_COND_AXIS_OFFSET-14 "0"
*MEAS_COND_AXIS_OFFSET-15 "0"
*MEAS_COND_AXIS_OFFSET-16 "0"
*MEAS_COND_AXIS_OFFSET-17 "0"
*MEAS_COND_AXIS_OFFSET-18 "0"
*MEAS_COND_AXIS_OFFSET-19 "0"
*MEAS_COND_AXIS_OFFSET-2 "0"
*MEAS_COND_AXIS_OFFSET-20 "0"
*MEAS_COND_AXIS_OFFSET-21 "0"
*MEAS_COND_AXIS_OFFSET-22 "0"
*MEAS_COND_AXIS_OFFSET-23 "0"
*MEAS_COND_AXIS_OFFSET-24 "0"
*MEAS_COND_AXIS_OFFSET-25 "0"
*MEAS_COND_AXIS_OFFSET-26 "0"
*MEAS_COND_AXIS_OFFSET-27 "0"
*MEAS_COND_AXIS_OFFSET-28 "0"
*MEAS_COND_AXIS_OFFSET-29 "0"
*MEAS_COND_AXIS_OFFSET-3 "0"
*MEAS_COND_AXIS_OFFSET-30 "0"
*MEAS_COND_AXIS_OFFSET-31 "0"
*MEAS_COND_AXIS_OFFSET-32 "0"
*MEAS_COND_AXIS_OFFSET-33 "0"
*MEAS_COND_AXIS_OFFSET-34 "0"
*MEAS_COND_AXIS_OFFSET-35 "0"
*MEAS_COND_AXIS_OFFSET-36 "0"
*MEAS_COND_AXIS_OFFSET-37 "0"
*MEAS_COND_AXIS_OFFSET-38 "0"
*MEAS_COND_AXIS_OFFSET-39 "0"
*MEAS_COND_AXIS_OFFSET-4 "0"
*MEAS_COND_AXIS_OFFSET-40 "0"
*MEAS_COND_AXIS_OFFSET-41 "0"
*MEAS_COND_AXIS_OFFSET-42 "0"
*MEAS_COND_AXIS_OFFSET-43 "0"
*MEAS_COND_AXIS_OFFSET-44 "0"
*MEAS_COND_AXIS_OFFSET-45 "0"
*MEAS_COND_AXIS_OFFSET-46 "0"
*MEAS_COND_AXIS_OFFSET-47 "0"
*MEAS_COND_AXIS_OFFSET-48 "0"
*MEAS_COND_AXIS_OFFSET-49 "0"
*MEAS_COND_AXIS_OFFSET-5 "0"
*MEAS_COND_AXIS_OFFSET-50 "0"
*MEAS_COND_AXIS_OFFSET-51 "0"
*MEAS_COND_AXIS_OFFSET-52 "0"
*MEAS_COND_AXIS_OFFSET-53 "0"
*MEAS_COND_AXIS_OFFSET-54 "0"
*MEAS_COND_AXIS_OFFSET-55 "0"
*MEAS_COND_AXIS_OFFSET-56 "0"
*MEAS_COND_AXIS_OFFSET-57 "0"
*MEAS_COND_AXIS_OFFSET-58 "0"
*MEAS_COND_AXIS_OFFSET-59 "0"
*MEAS_COND_AXIS_OFFSET-6 "0"
*MEAS_COND_AXIS_OFFSET-60 "0"
*MEAS_COND_AXIS_OFFSET-61 "0"
*MEAS_COND_AXIS_OFFSET-62 "0"
*MEAS_COND_AXIS_OFFSET-63 "0"
*MEAS_COND_AXIS_OFFSET-64 "0"
*MEAS_COND_AXIS_OFFSET-65 "0"
*MEAS_COND_AXIS_OFFSET-66 "0"
*MEAS_COND_AXIS_OFFSET-67 "0"
*MEAS_COND_AXIS_OFFSET-68 "0"
*MEAS_COND_AXIS_OFFSET-69 "0"
*MEAS_COND_AXIS_OFFSET-7 "0"
*MEAS_COND_AXIS_OFFSET-70 "0"
*MEAS_COND_AXIS_OFFSET-71 "0"
*MEAS_COND_AXIS_OFFSET-72 "0"
*MEAS_COND_AXIS_OFFSET-73 "0"
*MEAS_COND_AXIS_OFFSET-74 "0"
*MEAS_COND_AXIS_OFFSET-75 "0"
*MEAS_COND_AXIS_OFFSET-76 "0"
*MEAS_COND_AXIS_OFFSET-77 "0"
*MEAS_COND_AXIS_OFFSET-78 "0"
*MEAS_COND_AXIS_OFFSET-79 "0"
*MEAS_COND_AXIS_OFFSET-8 "0"
*MEAS_COND_AXIS_OFFSET-80 "0"
*MEAS_COND_AXIS_OFFSET-81 "0"
*MEAS_COND_AXIS_OFFSET-82 "0"
*MEAS_COND_AXIS_OFFSET-83 "0"
*MEAS_COND_AXIS_OFFSET-84 "0"
*MEAS_COND_AXIS_OFFSET-9 "0"
*MEAS_COND_AXIS_POSITION-0 "0.0000"
*MEAS_COND_AXIS_POSITION-1 "0.0000"
*MEAS_COND_AXIS_POSITION-10 "1/3deg"
*MEAS_COND_AXIS_POSITION-11 "1.105625"
*MEAS_COND_AXIS_POSITION-12 "1/3deg"
*MEAS_COND_AXIS_POSITION-13 "0.0000000"
*MEAS_COND_AXIS_POSITION-14 "10mm"
*MEAS_COND_AXIS_POSITION-15 "10mm"
*MEAS_COND_AXIS_POSITION-16 "10mm"
*MEAS_COND_AXIS_POSITION-17 "0.00000"
*MEAS_COND_AXIS_POSITION-18 "None"
*MEAS_COND_AXIS_POSITION-19 "None"
*MEAS_COND_AXIS_POSITION-2 "0.0000"
*MEAS_COND_AXIS_POSITION-20 "Cu_K-beta_1D"
*MEAS_COND_AXIS_POSITION-21 "PSA_open"
*MEAS_COND_AXIS_POSITION-22 "None"
*MEAS_COND_AXIS_POSITION-23 "20.100mm"
*MEAS_COND_AXIS_POSITION-24 "20.1"
*MEAS_COND_AXIS_POSITION-25 "20.100mm"
*MEAS_COND_AXIS_POSITION-26 "AC"
*MEAS_COND_AXIS_POSITION-27 "Mo-HiC"
*MEAS_COND_AXIS_POSITION-29 "None"
*MEAS_COND_AXIS_POSITION-3 "0.0000"
*MEAS_COND_AXIS_POSITION-30 "None"
*MEAS_COND_AXIS_POSITION-31 "None"
*MEAS_COND_AXIS_POSITION-4 "0.0000"
*MEAS_COND_AXIS_POSITION-5 "0.0000"
*MEAS_COND_AXIS_POSITION-6 "0.0000"
*MEAS_COND_AXIS_POSITION-7 "None"
*MEAS_COND_AXIS_POSITION-8 "Type1"
*MEAS_COND_AXIS_POSITION-81 "Manual"
*MEAS_COND_AXIS_POSITION-82 "IPS_adaptor"
*MEAS_COND_AXIS_POSITION-83 "PSA_open"
*MEAS_COND_AXIS_POSITION-84 "None"
*MEAS_COND_AXIS_POSITION-9 "Soller_slit_open"
*MEAS_COND_AXIS_RESOLUTION-0 "0.0001"
*MEAS_COND_AXIS_RESOLUTION-1 "0.0001"
*MEAS_COND_AXIS_RESOLUTION-10 "1/1600"
*MEAS_COND_AXIS_RESOLUTION-11 "1/1600"
*MEAS_COND_AXIS_RESOLUTION-12 "1/1600"
*MEAS_COND_AXIS_RESOLUTION-13 "0.0003125"
*MEAS_COND_AXIS_RESOLUTION-14 ""
*MEAS_COND_AXIS_RESOLUTION-15 ""
*MEAS_COND_AXIS_RESOLUTION-16 ""
*MEAS_COND_AXIS_RESOLUTION-17 "0.00002"
*MEAS_COND_AXIS_RESOLUTION-18 ""
*MEAS_COND_AXIS_RESOLUTION-19 ""
*MEAS_COND_AXIS_RESOLUTION-2 "0.0001"
*MEAS_COND_AXIS_RESOLUTION-20 ""
*MEAS_COND_AXIS_RESOLUTION-21 ""
*MEAS_COND_AXIS_RESOLUTION-22 ""
*MEAS_COND_AXIS_RESOLUTION-23 "0.1"
*MEAS_COND_AXIS_RESOLUTION-24 "0.1"
*MEAS_COND_AXIS_RESOLUTION-25 "0.1"
*MEAS_COND_AXIS_RESOLUTION-26 ""
*MEAS_COND_AXIS_RESOLUTION-27 ""
*MEAS_COND_AXIS_RESOLUTION-28 "1"
*MEAS_COND_AXIS_RESOLUTION-29 ""
*MEAS_COND_AXIS_RESOLUTION-3 "0.0001"
*MEAS_COND_AXIS_RESOLUTION-30 ""
*MEAS_COND_AXIS_RESOLUTION-31 ""
*MEAS_COND_AXIS_RESOLUTION-32 "0.01"
*MEAS_COND_AXIS_RESOLUTION-33 "0.010000"
*MEAS_COND_AXIS_RESOLUTION-34 "0.01"
*MEAS_COND_AXIS_RESOLUTION-35 "0.01"
*MEAS_COND_AXIS_RESOLUTION-36 "0.01"
*MEAS_COND_AXIS_RESOLUTION-37 "1"
*MEAS_COND_AXIS_RESOLUTION-38 "1"
*MEAS_COND_AXIS_RESOLUTION-39 "1"
*MEAS_COND_AXIS_RESOLUTION-4 "0.0002"
*MEAS_COND_AXIS_RESOLUTION-40 "1"
*MEAS_COND_AXIS_RESOLUTION-41 "0.01"
*MEAS_COND_AXIS_RESOLUTION-42 "0.01"
*MEAS_COND_AXIS_RESOLUTION-43 "0.01"
*MEAS_COND_AXIS_RESOLUTION-44 "0.01"
*MEAS_COND_AXIS_RESOLUTION-45 "0.010000"
*MEAS_COND_AXIS_RESOLUTION-46 "1"
*MEAS_COND_AXIS_RESOLUTION-47 "0.100000"
*MEAS_COND_AXIS_RESOLUTION-48 "1.000000"
*MEAS_COND_AXIS_RESOLUTION-49 "0.010000"
*MEAS_COND_AXIS_RESOLUTION-5 "0.0002"
*MEAS_COND_AXIS_RESOLUTION-50 "0.01"
*MEAS_COND_AXIS_RESOLUTION-51 "0.01"
*MEAS_COND_AXIS_RESOLUTION-52 "0.1"
*MEAS_COND_AXIS_RESOLUTION-53 "1"
*MEAS_COND_AXIS_RESOLUTION-54 "0.01"
*MEAS_COND_AXIS_RESOLUTION-55 "1.000000"
*MEAS_COND_AXIS_RESOLUTION-56 "1"
*MEAS_COND_AXIS_RESOLUTION-57 "1.000000"
*MEAS_COND_AXIS_RESOLUTION-58 "1"
*MEAS_COND_AXIS_RESOLUTION-59 "0.01"
*MEAS_COND_AXIS_RESOLUTION-6 "0.0001"
*MEAS_COND_AXIS_RESOLUTION-60 "1"
*MEAS_COND_AXIS_RESOLUTION-61 "1"
*MEAS_COND_AXIS_RESOLUTION-62 "1"
*MEAS_COND_AXIS_RESOLUTION-63 "0.01"
*MEAS_COND_AXIS_RESOLUTION-64 "1.000000"
*MEAS_COND_AXIS_RESOLUTION-65 "1.000000"
*MEAS_COND_AXIS_RESOLUTION-66 "1.000000"
*MEAS_COND_AXIS_RESOLUTION-67 "-"
*MEAS_COND_AXIS_RESOLUTION-68 "-"
*MEAS_COND_AXIS_RESOLUTION-69 "-"
*MEAS_COND_AXIS_RESOLUTION-7 ""
*MEAS_COND_AXIS_RESOLUTION-70 "1.000000"
*MEAS_COND_AXIS_RESOLUTION-71 "-"
*MEAS_COND_AXIS_RESOLUTION-72 "-"
*MEAS_COND_AXIS_RESOLUTION-73 "-"
*MEAS_COND_AXIS_RESOLUTION-74 "1.000000"
*MEAS_COND_AXIS_RESOLUTION-75 "1.000000"
*MEAS_COND_AXIS_RESOLUTION-76 "1.000000"
*MEAS_COND_AXIS_RESOLUTION-77 "1.000000"
*MEAS_COND_AXIS_RESOLUTION-78 "1.000000"
*MEAS_COND_AXIS_RESOLUTION-79 "1.000000"
*MEAS_COND_AXIS_RESOLUTION-8 ""
*MEAS_COND_AXIS_RESOLUTION-80 "1.000000"
*MEAS_COND_AXIS_RESOLUTION-9 ""
*MEAS_COND_AXIS_STATE-0 "Fixed"
*MEAS_COND_AXIS_STATE-1 "Fixed"
*MEAS_COND_AXIS_STATE-10 "Fixed"
*MEAS_COND_AXIS_STATE-11 "Fixed"
*MEAS_COND_AXIS_STATE-12 "Fixed"
*MEAS_COND_AXIS_STATE-13 "Fixed"
*MEAS_COND_AXIS_STATE-14 "Fixed"
*MEAS_COND_AXIS_STATE-15 "Fixed"
*MEAS_COND_AXIS_STATE-16 "Fixed"
*MEAS_COND_AXIS_STATE-17 "Fixed"
*MEAS_COND_AXIS_STATE-18 "Fixed"
*MEAS_COND_AXIS_STATE-19 "Fixed"
*MEAS_COND_AXIS_STATE-2 "Fixed"
*MEAS_COND_AXIS_STATE-20 "Fixed"
*MEAS_COND_AXIS_STATE-21 "Fixed"
*MEAS_COND_AXIS_STATE-22 "Fixed"
*MEAS_COND_AXIS_STATE-23 "Fixed"
*MEAS_COND_AXIS_STATE-24 "Fixed"
*MEAS_COND_AXIS_STATE-25 "Fixed"
*MEAS_COND_AXIS_STATE-26 "Fixed"
*MEAS_COND_AXIS_STATE-27 "Fixed"
*MEAS_COND_AXIS_STATE-28 "Fixed"
*MEAS_COND_AXIS_STATE-29 "Fixed"
*MEAS_COND_AXIS_STATE-3 "Fixed"
*MEAS_COND_AXIS_STATE-30 "Fixed"
*MEAS_COND_AXIS_STATE-31 "Fixed"
*MEAS_COND_AXIS_STATE-32 "Fixed"
*MEAS_COND_AXIS_STATE-33 "Fixed"
*MEAS_COND_AXIS_STATE-34 "Fixed"
*MEAS_COND_AXIS_STATE-35 "Fixed"
*MEAS_COND_AXIS_STATE-36 "Fixed"
*MEAS_COND_AXIS_STATE-37 "Fixed"
*MEAS_COND_AXIS_STATE-38 "Fixed"
*MEAS_COND_AXIS_STATE-39 "Fixed"
*MEAS_COND_AXIS_STATE-4 "Scan"
*MEAS_COND_AXIS_STATE-40 "Fixed"
*MEAS_COND_AXIS_STATE-41 "Fixed"
*MEAS_COND_AXIS_STATE-42 "Fixed"
*MEAS_COND_AXIS_STATE-43 "Fixed"
*MEAS_COND_AXIS_STATE-44 "Fixed"
*MEAS_COND_AXIS_STATE-45 "Fixed"
*MEAS_COND_AXIS_STATE-46 "Fixed"
*MEAS_COND_AXIS_STATE-47 "Fixed"
*MEAS_COND_AXIS_STATE-48 "Fixed"
*MEAS_COND_AXIS_STATE-49 "Fixed"
*MEAS_COND_AXIS_STATE-5 "Fixed"
*MEAS_COND_AXIS_STATE-50 "Fixed"
*MEAS_COND_AXIS_STATE-51 "Fixed"
*MEAS_COND_AXIS_STATE-52 "Fixed"
*MEAS_COND_AXIS_STATE-53 "Fixed"
*MEAS_COND_AXIS_STATE-54 "Fixed"
*MEAS_COND_AXIS_STATE-55 "Fixed"
*MEAS_COND_AXIS_STATE-56 "Fixed"
*MEAS_COND_AXIS_STATE-57 "Fixed"
*MEAS_COND_AXIS_STATE-58 "Fixed"
*MEAS_COND_AXIS_STATE-59 "Fixed"
*MEAS_COND_AXIS_STATE-6 "Fixed"
*MEAS_COND_AXIS_STATE-60 "Fixed"
*MEAS_COND_AXIS_STATE-61 "Fixed"
*MEAS_COND_AXIS_STATE-62 "Fixed"
*MEAS_COND_AXIS_STATE-63 "Fixed"
*MEAS_COND_AXIS_STATE-64 "Fixed"
*MEAS_COND_AXIS_STATE-65 "Fixed"
*MEAS_COND_AXIS_STATE-66 "Fixed"
*MEAS_COND_AXIS_STATE-67 "Fixed"
*MEAS_COND_AXIS_STATE-68 "Fixed"
*MEAS_COND_AXIS_STATE-69 "Fixed"
*MEAS_COND_AXIS_STATE-7 "Fixed"
*MEAS_COND_AXIS_STATE-70 "Fixed"
*MEAS_COND_AXIS_STATE-71 "Fixed"
*MEAS_COND_AXIS_STATE-72 "Fixed"
*MEAS_COND_AXIS_STATE-73 "Fixed"
*MEAS_COND_AXIS_STATE-74 "Fixed"
*MEAS_COND_AXIS_STATE-75 "Fixed"
*MEAS_COND_AXIS_STATE-76 "Fixed"
*MEAS_COND_AXIS_STATE-77 "Fixed"
*MEAS_COND_AXIS_STATE-78 "Fixed"
*MEAS_COND_AXIS_STATE-79 "Fixed"
*MEAS_COND_AXIS_STATE-8 "Fixed"
*MEAS_COND_AXIS_STATE-80 "Fixed"
*MEAS_COND_AXIS_STATE-9 "Fixed"
*MEAS_COND_AXIS_UNIT-0 "deg"
*MEAS_COND_AXIS_UNIT-1 "deg"
*MEAS_COND_AXIS_UNIT-10 ""
*MEAS_COND_AXIS_UNIT-11 "mm"
*MEAS_COND_AXIS_UNIT-12 ""
*MEAS_COND_AXIS_UNIT-13 "mm"
*MEAS_COND_AXIS_UNIT-14 ""
*MEAS_COND_AXIS_UNIT-15 ""
*MEAS_COND_AXIS_UNIT-16 ""
*MEAS_COND_AXIS_UNIT-17 "mm"
*MEAS_COND_AXIS_UNIT-18 ""
*MEAS_COND_AXIS_UNIT-19 ""
*MEAS_COND_AXIS_UNIT-2 "deg"
*MEAS_COND_AXIS_UNIT-20 ""
*MEAS_COND_AXIS_UNIT-21 ""
*MEAS_COND_AXIS_UNIT-22 ""
*MEAS_COND_AXIS_UNIT-23 ""
*MEAS_COND_AXIS_UNIT-24 "mm"
*MEAS_COND_AXIS_UNIT-25 ""
*MEAS_COND_AXIS_UNIT-26 ""
*MEAS_COND_AXIS_UNIT-27 ""
*MEAS_COND_AXIS_UNIT-28 "keV"
*MEAS_COND_AXIS_UNIT-29 ""
*MEAS_COND_AXIS_UNIT-3 "deg"
*MEAS_COND_AXIS_UNIT-30 ""
*MEAS_COND_AXIS_UNIT-31 ""
*MEAS_COND_AXIS_UNIT-32 "H"
*MEAS_COND_AXIS_UNIT-33 "H"
*MEAS_COND_AXIS_UNIT-34 "H"
*MEAS_COND_AXIS_UNIT-35 "H"
*MEAS_COND_AXIS_UNIT-36 "H"
*MEAS_COND_AXIS_UNIT-37 "mV"
*MEAS_COND_AXIS_UNIT-38 "V"
*MEAS_COND_AXIS_UNIT-39 "V"
*MEAS_COND_AXIS_UNIT-4 "deg"
*MEAS_COND_AXIS_UNIT-40 "V"
*MEAS_COND_AXIS_UNIT-41 "H"
*MEAS_COND_AXIS_UNIT-42 "H"
*MEAS_COND_AXIS_UNIT-43 "H"
*MEAS_COND_AXIS_UNIT-44 "H"
*MEAS_COND_AXIS_UNIT-45 "H"
*MEAS_COND_AXIS_UNIT-46 "uS/m"
*MEAS_COND_AXIS_UNIT-47 "L/min"
*MEAS_COND_AXIS_UNIT-48 "degree"
*MEAS_COND_AXIS_UNIT-49 "MPa"
*MEAS_COND_AXIS_UNIT-5 "deg"
*MEAS_COND_AXIS_UNIT-50 "MPa"
*MEAS_COND_AXIS_UNIT-51 "MPa"
*MEAS_COND_AXIS_UNIT-52 "L/min"
*MEAS_COND_AXIS_UNIT-53 "C"
*MEAS_COND_AXIS_UNIT-54 "MPa"
*MEAS_COND_AXIS_UNIT-55 "degree"
*MEAS_COND_AXIS_UNIT-56 "percent"
*MEAS_COND_AXIS_UNIT-57 "degree"
*MEAS_COND_AXIS_UNIT-58 "C"
*MEAS_COND_AXIS_UNIT-59 "H"
*MEAS_COND_AXIS_UNIT-6 "deg"
*MEAS_COND_AXIS_UNIT-60 "time"
*MEAS_COND_AXIS_UNIT-61 "msec"
*MEAS_COND_AXIS_UNIT-62 "msec"
*MEAS_COND_AXIS_UNIT-63 "H"
*MEAS_COND_AXIS_UNIT-64 "times"
*MEAS_COND_AXIS_UNIT-65 "msec"
*MEAS_COND_AXIS_UNIT-66 "msec"
*MEAS_COND_AXIS_UNIT-67 "-"
*MEAS_COND_AXIS_UNIT-68 "-"
*MEAS_COND_AXIS_UNIT-69 "-"
*MEAS_COND_AXIS_UNIT-7 ""
*MEAS_COND_AXIS_UNIT-70 ""
*MEAS_COND_AXIS_UNIT-71 "-"
*MEAS_COND_AXIS_UNIT-72 "-"
*MEAS_COND_AXIS_UNIT-73 "-"
*MEAS_COND_AXIS_UNIT-74 ""
*MEAS_COND_AXIS_UNIT-75 ""
*MEAS_COND_AXIS_UNIT-76 ""
*MEAS_COND_AXIS_UNIT-77 ""
*MEAS_COND_AXIS_UNIT-78 ""
*MEAS_COND_AXIS_UNIT-79 ""
*MEAS_COND_AXIS_UNIT-8 ""
*MEAS_COND_AXIS_UNIT-80 ""
*MEAS_COND_AXIS_UNIT-81 ""
*MEAS_COND_AXIS_UNIT-82 ""
*MEAS_COND_AXIS_UNIT-83 ""
*MEAS_COND_AXIS_UNIT-84 ""
*MEAS_COND_AXIS_UNIT-9 ""
*MEAS_COND_COUNTER_CENTER_X "48.5"
*MEAS_COND_COUNTER_CENTER_Y "192.5"
*MEAS_COND_COUNTER_COUNTMODE "Differential"
*MEAS_COND_COUNTER_DEADTIMECORRECTION "Enabled"
*MEAS_COND_COUNTER_DISTANCE "300"
*MEAS_COND_COUNTER_ENERGYMODE "Standard"
*MEAS_COND_COUNTER_INTEGRALMODE "Line"
*MEAS_COND_COUNTER_PHA_UNIT "keV"
*MEAS_COND_COUNTER_PHABASE "6.0"
*MEAS_COND_COUNTER_PHAWINDOW "4.0"
*MEAS_COND_COUNTER_PITCH_X "0.1"
*MEAS_COND_COUNTER_PITCH_Y "0.1"
*MEAS_COND_COUNTER_PITCHUNIT "mm"
*MEAS_COND_COUNTER_VALIDWIDTH_X "192"
*MEAS_COND_COUNTER_VALIDWIDTH_Y "201"
*MEAS_COND_OPT_ATTR "BB"
*MEAS_COND_OPT_NAME ""
*MEAS_COND_XG_CURRENT "40"
*MEAS_COND_XG_VOLTAGE "40"
*MEAS_COND_XG_WAVE_TYPE "Ka"
*MEAS_DATA_COUNT "3501"
*MEAS_SCAN_AXIS_X "TwoThetaTheta"
*MEAS_SCAN_AXIS_X_INTERNAL "TwoThetaTheta"
*MEAS_SCAN_END_TIME "08/26/2025 13:50:21"
*MEAS_SCAN_MODE "CONTINUOUS"
*MEAS_SCAN_MODE_INTERNAL "TDI_1D"
*MEAS_SCAN_RESOLUTION_X "0.0002"
*MEAS_SCAN_SPEED "10.0000"
*MEAS_SCAN_SPEED_UNIT "deg/min"
*MEAS_SCAN_START "5.0000"
*MEAS_SCAN_START_TIME "08/26/2025 13:46:11"
*MEAS_SCAN_STEP "0.0100"
*MEAS_SCAN_STOP "40.0000"
*MEAS_SCAN_UNEQUALY_SPACED "False"
*MEAS_SCAN_UNIT_X "deg"
*MEAS_SCAN_UNIT_Y "cps"
#Intensity_unit=cps
#Attenuator_coefficient=1.0000
5.0000 5036.6856
5.0100 5213.0350
5.0200 4949.8022
5.0300 5169.2002
5.0400 4653.1600
5.0500 4824.0316
5.0600 4991.4546
5.0700 5206.0846
5.0800 5110.9248
5.0900 4331.5954
5.1000 4861.8682
5.1100 4843.7606
5.1200 4780.4668
5.1300 5163.4598
5.1400 4470.6808
5.1500 5520.3618
5.1600 4920.7774
5.1700 5659.1492
5.1800 5576.1494
5.1900 4919.8950
5.2000 4918.1468
5.2100 5404.1458
5.2200 5000.1516
5.2300 5271.2092
5.2400 4672.7386
5.2500 4980.2708
5.2600 4760.4620
5.2700 4774.5764
5.2800 5137.5086
5.2900 4926.6128
5.3000 4953.7776
5.3100 4509.9808
5.3200 4929.1748
5.3300 5049.2212
5.3400 4872.7666
5.3500 4493.7988
5.3600 5254.9988
5.3700 5020.0688
5.3800 4428.2842
5.3900 4670.8486
5.4000 4949.4852
5.4100 5113.4334
5.4200 4885.5256
5.4300 4154.5282
5.4400 4782.3268
5.4500 4813.1220
5.4600 4543.3064
5.4700 4298.2260
5.4800 5110.4956
5.4900 5214.7736
5.5000 5339.2842
5.5100 5048.8862
5.5200 4766.1174
5.5300 5051.0670
5.5400 5141.1652
5.5500 4910.4176
5.5600 4813.4466
5.5700 4474.1002
5.5800 4851.9466
5.5900 4888.7410
5.6000 4816.0044
5.6100 4576.1668
5.6200 4800.0112
5.6300 4806.0648
5.6400 5366.3584
5.6500 5451.3626
5.6600 5460.1166
5.6700 4740.1688
5.6800 4638.6516
5.6900 5170.4712
5.7000 4809.5124
5.7100 5514.2486
5.7200 5037.3906
5.7300 5894.2352
5.7400 4860.7248
5.7500 4924.3648
5.7600 5775.7238
5.7700 4655.7200
5.7800 5495.1070
5.7900 5341.8254
5.8000 5079.4592
5.8100 5691.5584
5.8200 5531.1570
5.8300 5825.6958
5.8400 5726.9714
5.8500 5813.7894
5.8600 6188.2380
5.8700 6244.8736
5.8800 6428.6000
5.8900 6062.7716
5.9000 6502.3326
5.9100 5881.0858
5.9200 6325.3428
5.9300 6105.4692
5.9400 6555.1310
5.9500 6632.9616
5.9600 6687.9980
5.9700 6377.2404
5.9800 6532.0180
5.9900 6496.5972
6.0000 6981.7002
6.0100 6632.6396
6.0200 6338.7924
6.0300 7574.7838
6.0400 7561.6756
6.0500 7637.3942
6.0600 7608.2128
6.0700 7993.7144
6.0800 7400.8824
6.0900 8197.9212
6.1000 7806.4854
6.1100 8183.8486
6.1200 8142.1464
6.1300 7853.8930
6.1400 8123.9298
6.1500 8182.2998
6.1600 9197.5168
6.1700 9471.2728
6.1800 9273.4090
6.1900 8685.4320
6.2000 8443.8502
6.2100 10517.0248
6.2200 10215.9596
6.2300 9440.1500
6.2400 10036.3922
6.2500 10979.9744
6.2600 10639.5498
6.2700 10872.3958
6.2800 11111.7350
6.2900 11063.4400
6.3000 11250.6520
6.3100 11384.3578
6.3200 12980.1310
6.3300 11841.7378
6.3400 11990.0544
6.3500 12533.5896
6.3600 12295.0216
6.3700 12968.4164
6.3800 12792.2710
6.3900 12649.6562
6.4000 13672.4060
6.4100 13895.5262
6.4200 13728.2970
6.4300 14155.1096
6.4400 14591.5762
6.4500 15603.1830
6.4600 15183.4676
6.4700 14542.6260
6.4800 14564.8620
6.4900 15360.1928
6.5000 16393.7592
6.5100 16925.3744
6.5200 16759.6304
6.5300 17468.8294
6.5400 16654.7740
6.5500 18508.2846
6.5600 18043.8884
6.5700 19121.4518
6.5800 18965.7368
6.5900 19891.5996
6.6000 20653.7680
6.6100 19292.9220
6.6200 20458.3374
6.6300 20738.7308
6.6400 20946.6574
6.6500 21361.8612
6.6600 21731.0914
6.6700 22193.9534
6.6800 22432.6864
6.6900 22994.5882
6.7000 23544.3684
6.7100 23591.3940
6.7200 25102.2318
6.7300 25331.3314
6.7400 26324.7334
6.7500 25899.4486
6.7600 27155.0374
6.7700 26999.3348
6.7800 27099.5972
6.7900 27530.3080
6.8000 29233.7056
6.8100 28448.9462
6.8200 29797.4122
6.8300 29873.2910
6.8400 30542.1672
6.8500 32172.1720
6.8600 32069.1610
6.8700 31846.1446
6.8800 34510.7910
6.8900 33918.9860
6.9000 33715.5090
6.9100 35014.5100
6.9200 34575.9562
6.9300 35414.1968
6.9400 37709.2488
6.9500 38626.5502
6.9600 38241.1214
6.9700 40141.6910
6.9800 38659.7290
6.9900 39661.0636
7.0000 40515.3076
7.0100 40410.1034
7.0200 41967.8304
7.0300 42300.9602
7.0400 43814.7542
7.0500 43420.2880
7.0600 42089.9740
7.0700 45919.9504
7.0800 48112.6262
7.0900 47739.6770
7.1000 48368.5100
7.1100 49273.9340
7.1200 50750.0244
7.1300 51158.9804
7.1400 52197.4976
7.1500 53197.2208
7.1600 53879.3458
7.1700 54229.2644
7.1800 57286.8816
7.1900 56963.2202
7.2000 56911.3404
7.2100 59288.2364
7.2200 59069.4580
7.2300 59985.0056
7.2400 62386.5234
7.2500 62014.3840
7.2600 64581.8766
7.2700 66258.5164
7.2800 66228.0924
7.2900 67676.5340
7.3000 70562.4024
7.3100 72481.8034
7.3200 72412.7442
7.3300 73957.2348
7.3400 77264.7786
7.3500 77761.5886
7.3600 78358.4880
7.3700 78818.9942
7.3800 80910.3434
7.3900 83917.4480
7.4000 85439.0300
7.4100 88504.7364
7.4200 92027.1972
7.4300 93292.3584
7.4400 96620.1578
7.4500 96546.0774
7.4600 99004.4026
7.4700 102854.1830
7.4800 105193.9942
7.4900 106688.7532
7.5000 110717.4154
7.5100 118779.3050
7.5200 118872.2656
7.5300 122605.1432
7.5400 125353.7598
7.5500 129231.8034
7.5600 132094.2058
7.5700 135550.5126
7.5800 137756.3964
7.5900 138230.6640
7.6000 139192.3502
7.6100 136087.0768
7.6200 134192.3014
7.6300 134601.5870
7.6400 133336.0922
7.6500 127835.8806
7.6600 124088.0616
7.6700 115960.3434
7.6800 106901.3754
7.6900 99090.5844
7.7000 88873.6898
7.7100 81214.5834
7.7200 71261.7188
7.7300 61926.1638
7.7400 53513.8754
7.7500 44989.7216
7.7600 39023.6124
7.7700 34923.5108
7.7800 31940.3930
7.7900 29009.1328
7.8000 28668.6646
7.8100 25899.8108
7.8200 25539.9820
7.8300 25047.8230
7.8400 23678.1534
7.8500 23688.5702
7.8600 22311.3138
7.8700 21981.9580
7.8800 21950.0326
7.8900 20688.0738
7.9000 19415.9038
7.9100 18411.5010
7.9200 19034.4726
7.9300 17389.8722
7.9400 15578.1596
7.9500 14845.8780
7.9600 14057.0384
7.9700 12848.4670
7.9800 12942.9820
7.9900 11900.6084
8.0000 10862.5102
8.0100 10063.1104
8.0200 9536.7716
8.0300 9043.8762
8.0400 8509.9584
8.0500 8134.2138
8.0600 8108.8704
8.0700 7850.8276
8.0800 7294.6202
8.0900 7003.6978
8.1000 6309.6562
8.1100 6166.9682
8.1200 6268.6122
8.1300 6509.6064
8.1400 6412.2380
8.1500 6305.9438
8.1600 5659.5586
8.1700 6351.5590
8.1800 6245.4274
8.1900 6297.3140
8.2000 5565.1876
8.2100 5773.9222
8.2200 5462.2258
8.2300 5612.8616
8.2400 6093.9544
8.2500 5860.2350
8.2600 6061.2870
8.2700 5626.1618
8.2800 5268.9788
8.2900 5090.3264
8.3000 5192.8456
8.3100 5890.2746
8.3200 5353.5868
8.3300 5820.1274
8.3400 5489.7898
8.3500 5607.1436
8.3600 4986.9238
8.3700 4956.2770
8.3800 5220.0582
8.3900 4905.1046
8.4000 4540.6942
8.4100 4794.5292
8.4200 5005.4270
8.4300 5272.7910
8.4400 5128.1234
8.4500 4482.6660
8.4600 4777.2222
8.4700 4973.7158
8.4800 4840.7760
8.4900 4264.5066
8.5000 4397.8898
8.5100 4341.1108
8.5200 4365.7578
8.5300 4254.9242
8.5400 4545.7570
8.5500 4732.9992
8.5600 4580.9972
8.5700 4115.8968
8.5800 4167.6282
8.5900 4536.2828
8.6000 4355.5202
8.6100 4273.1582
8.6200 4031.1190
8.6300 4435.2188
8.6400 4026.2484
8.6500 4101.5406
8.6600 4021.5422
8.6700 4268.2210
8.6800 4411.7366
8.6900 4160.5930
8.7000 4557.7072
8.7100 3878.3466
8.7200 4220.8252
8.7300 4133.4358
8.7400 4071.5134
8.7500 3852.5516
8.7600 4498.2676
8.7700 4359.1684
8.7800 4034.6992
8.7900 4022.2264
8.8000 3964.6988
8.8100 3786.2152
8.8200 3628.8562
8.8300 4013.7634
8.8400 3788.4812
8.8500 3935.4020
8.8600 3835.9186
8.8700 4002.2710
8.8800 3671.8608
8.8900 3940.0714
8.9000 4217.1358
8.9100 4194.9318
8.9200 4014.2672
8.9300 3663.4636
8.9400 3776.8176
8.9500 4119.5330
8.9600 3919.1088
8.9700 3922.7662
8.9800 3987.1870
8.9900 4146.7386
9.0000 3825.1814
9.0100 3810.1244
9.0200 3917.9612
9.0300 3512.3268
9.0400 3824.5064
9.0500 3682.7194
9.0600 3556.6964
9.0700 3255.6316
9.0800 3820.6868
9.0900 3628.9014
9.1000 3422.7480
9.1100 3672.7822
9.1200 3788.0472
9.1300 3842.4980
9.1400 3504.8078
9.1500 3380.6084
9.1600 3623.9998
9.1700 4101.8826
9.1800 3856.4198
9.1900 3573.1876
9.2000 3727.4998
9.2100 3775.5618
9.2200 3464.6012
9.2300 3290.9976
9.2400 3297.9650
9.2500 3301.0452
9.2600 3824.2384
9.2700 3390.0962
9.2800 3698.5010
9.2900 3488.3734
9.3000 3278.2424
9.3100 3899.9950
9.3200 3819.4536
9.3300 3582.3572
9.3400 3104.8068
9.3500 3641.1812
9.3600 3449.8296
9.3700 3558.0012
9.3800 3141.0190
9.3900 3791.3720
9.4000 3379.3162
9.4100 3137.1376
9.4200 3690.5236
9.4300 3503.0952
9.4400 3593.8508
9.4500 3671.5844
9.4600 3374.5952
9.4700 3912.0966
9.4800 3310.4746
9.4900 3359.7914
9.5000 3610.8028
9.5100 3855.0038
9.5200 3545.8562
9.5300 3847.6586
9.5400 3477.4188
9.5500 3681.3360
9.5600 3693.4848
9.5700 3759.7282
9.5800 3738.3916
9.5900 3965.3432
9.6000 3929.1506
9.6100 3900.9738
9.6200 3663.7772
9.6300 3312.1552
9.6400 3671.2972
9.6500 3999.9514
9.6600 3813.5660
9.6700 4220.6744
9.6800 4417.8610
9.6900 4127.9124
9.7000 4200.9124
9.7100 4354.7236
9.7200 4407.1604
9.7300 4597.9086
9.7400 3958.8204
9.7500 4375.3566
9.7600 4583.6964
9.7700 4417.9362
9.7800 4357.9620
9.7900 4777.2562
9.8000 4545.1878
9.8100 5053.3248
9.8200 5001.2030
9.8300 4662.2004
9.8400 4961.0428
9.8500 5233.3282
9.8600 5372.4254
9.8700 5514.6448
9.8800 5445.1492
9.8900 5326.8504
9.9000 5709.9466
9.9100 5718.4300
9.9200 5469.2810
9.9300 5715.2872
9.9400 5913.0686
9.9500 5564.9908
9.9600 6194.8638
9.9700 5676.9500
9.9800 6184.0114
9.9900 6630.8970
10.0000 6493.5928
10.0100 6353.0604
10.0200 6538.8032
10.0300 6948.0402
10.0400 7504.7572
10.0500 6840.2648
10.0600 6943.0192
10.0700 7593.4454
10.0800 8177.0762
10.0900 7650.2722
10.1000 8323.2656
10.1100 7735.4080
10.1200 8861.7502
10.1300 8075.5778
10.1400 8205.2186
10.1500 9751.1230
10.1600 9142.1672
10.1700 9442.7998
10.1800 9968.1488
10.1900 9727.5096
10.2000 9782.5470
10.2100 10203.0976
10.2200 10318.8578
10.2300 10825.9308
10.2400 10980.9652
10.2500 11577.4882
10.2600 11166.9180
10.2700 11922.7000
10.2800 12740.0930
10.2900 12478.0294
10.3000 12814.3962
10.3100 13543.7082
10.3200 14112.1898
10.3300 13447.8800
10.3400 14805.6926
10.3500 14887.4664
10.3600 15335.1716
10.3700 16035.2824
10.3800 16350.7620
10.3900 15906.8248
10.4000 16827.3874
10.4100 17512.4288
10.4200 18718.9066
10.4300 18473.9318
10.4400 19468.9168
10.4500 20262.5916
10.4600 21649.8962
10.4700 20160.4532
10.4800 22702.4068
10.4900 21328.4098
10.5000 23020.9370
10.5100 23737.2538
10.5200 25053.2532
10.5300 26277.0650
10.5400 27427.2420
10.5500 28499.7274
10.5600 30063.0818
10.5700 31287.1786
10.5800 32815.2934
10.5900 33885.6058
10.6000 37340.2180
10.6100 36194.0348
10.6200 36767.2770
10.6300 37137.6220
10.6400 38563.1918
10.6500 37482.5764
10.6600 39594.4702
10.6700 38756.0832
10.6800 37741.8782
10.6900 37178.2592
10.7000 34341.0522
10.7100 33854.8380
10.7200 31890.9932
10.7300 30204.9378
10.7400 28721.0896
10.7500 26310.4004
10.7600 23144.5088
10.7700 19625.1200
10.7800 17763.0900
10.7900 15207.9194
10.8000 13238.6932
10.8100 11686.5468
10.8200 10269.7550
10.8300 9415.0594
10.8400 8808.0098
10.8500 7932.4478
10.8600 8052.3356
10.8700 7776.6638
10.8800 7845.7332
10.8900 7232.7794
10.9000 6727.9668
10.9100 6625.4792
10.9200 6361.3582
10.9300 6021.4676
10.9400 6053.9988
10.9500 6117.2018
10.9600 6412.9944
10.9700 5527.5432
10.9800 5647.4462
10.9900 5414.9516
11.0000 4917.5278
11.0100 5104.9912
11.0200 4804.2836
11.0300 4457.5760
11.0400 4716.5340
11.0500 4435.5774
11.0600 4207.4430
11.0700 4090.3658
11.0800 3974.2216
11.0900 3837.2960
11.1000 3507.5870
11.1100 3596.1134
11.1200 3243.2764
11.1300 3923.0528
11.1400 3610.0336
11.1500 3666.2376
11.1600 3319.4626
11.1700 3361.0684
11.1800 3232.9518
11.1900 3530.5580
11.2000 3593.7240
11.2100 3834.0688
11.2200 3512.6808
11.2300 3556.5480
11.2400 3742.4964
11.2500 3726.0366
11.2600 3577.5928
11.2700 3500.1426
11.2800 3127.6000
11.2900 3373.5020
11.3000 3477.5110
11.3100 3439.0708
11.3200 3299.8640
11.3300 3504.7038
11.3400 3433.2270
11.3500 3196.6818
11.3600 3824.9018
11.3700 3392.3556
11.3800 3237.1572
11.3900 3296.3822
11.4000 3123.8398
11.4100 3150.9842
11.4200 2881.0638
11.4300 3916.4530
11.4400 3558.2534
11.4500 3299.8184
11.4600 3618.4806
11.4700 3377.9516
11.4800 3020.8064
11.4900 2927.1320
11.5000 3325.1994
11.5100 3682.8270
11.5200 3046.2642
11.5300 2954.5860
11.5400 3282.7304
11.5500 3683.5494
11.5600 3265.4954
11.5700 3024.9374
11.5800 3401.3408
11.5900 3241.6684
11.6000 3068.7792
11.6100 3296.4010
11.6200 3308.2194
11.6300 3449.9650
11.6400 3094.7464
11.6500 3261.5308
11.6600 3008.1446
11.6700 3177.9228
11.6800 3532.8168
11.6900 3453.1370
11.7000 3402.8458
11.7100 3100.4908
11.7200 2939.0104
11.7300 3252.4070
11.7400 3459.4744
11.7500 3550.4280
11.7600 3480.3296
11.7700 3336.0788
11.7800 3648.1914
11.7900 3347.9108
11.8000 3154.9854
11.8100 3086.7568
11.8200 3386.4556
11.8300 3279.0512
11.8400 3339.4112
11.8500 3127.2662
11.8600 3195.5174
11.8700 3325.4276
11.8800 3371.7466
11.8900 3103.7516
11.9000 3051.6874
11.9100 3202.9012
11.9200 3058.4304
11.9300 3675.1272
11.9400 3394.3362
11.9500 3405.9716
11.9600 3621.6000
11.9700 3653.3228
11.9800 3360.6430
11.9900 3550.3654
12.0000 3276.9570
12.0100 3727.5122
12.0200 3894.6492
12.0300 3870.8558
12.0400 3799.1244
12.0500 3967.8788
12.0600 4235.0444
12.0700 3982.1990
12.0800 4303.1656
12.0900 4215.9250
12.1000 4096.3562
12.1100 4639.6204
12.1200 4370.2698
12.1300 4499.3638
12.1400 5241.5314
12.1500 4930.6646
12.1600 5111.9862
12.1700 5321.5988
12.1800 5141.2420
12.1900 5781.9896
12.2000 5717.8554
12.2100 5648.7732
12.2200 5867.1630
12.2300 6086.7390
12.2400 6634.9600
12.2500 6528.8030
12.2600 6811.1434
12.2700 7026.7696
12.2800 7101.5610
12.2900 7197.3170
12.3000 6762.8738
12.3100 7706.2484
12.3200 7558.0582
12.3300 8230.4356
12.3400 8623.5758
12.3500 8756.8532
12.3600 9354.4606
12.3700 9716.1530
12.3800 9967.2618
12.3900 10728.4282
12.4000 11125.4384
12.4100 11428.9194
12.4200 11635.1634
12.4300 12169.0948
12.4400 12169.1396
12.4500 13498.4162
12.4600 14037.0616
12.4700 14434.1268
12.4800 14527.4262
12.4900 15038.8570
12.5000 16356.2988
12.5100 16115.8010
12.5200 16992.6758
12.5300 18763.8224
12.5400 18272.0968
12.5500 19718.5018
12.5600 20337.8012
12.5700 21321.2118
12.5800 22521.9768
12.5900 23505.0048
12.6000 23563.4766
12.6100 24569.0002
12.6200 25549.2188
12.6300 27659.1452
12.6400 29576.5178
12.6500 30689.2740
12.6600 29317.6452
12.6700 32504.7018
12.6800 33374.8556
12.6900 35028.2430
12.7000 36767.8142
12.7100 38475.3946
12.7200 39304.9764
12.7300 39617.4602
12.7400 43491.6666
12.7500 44625.6592
12.7600 46163.3504
12.7700 50527.4820
12.7800 51428.9958
12.7900 51877.2216
12.8000 55725.3012
12.8100 59549.6094
12.8200 61229.3212
12.8300 64381.9052
12.8400 67391.9514
12.8500 72723.3318
12.8600 75095.8170
12.8700 80006.3314
12.8800 85068.0908
12.8900 91076.6276
12.9000 96343.6280
12.9100 100498.8362
12.9200 104510.0424
12.9300 112782.0150
12.9400 114936.8082
12.9500 121261.3200
12.9600 123761.7676
12.9700 126898.1038
12.9800 130229.2806
12.9900 131978.5320
13.0000 131700.3662
13.0100 125957.3894
13.0200 124463.5824
13.0300 119872.4934
13.0400 116509.5540
13.0500 111943.7012
13.0600 105538.3220
13.0700 99235.9782
13.0800 90781.6570
13.0900 84430.5746
13.1000 75296.4274
13.1100 67427.4536
13.1200 60357.8002
13.1300 52492.5008
13.1400 43872.2778
13.1500 37741.5690
13.1600 33052.8706
13.1700 28434.1126
13.1800 25429.1952
13.1900 22692.7530
13.2000 20568.0990
13.2100 19492.9484
13.2200 18277.3640
13.2300 16980.1544
13.2400 16254.0618
13.2500 14507.5948
13.2600 13813.9252
13.2700 13219.5038
13.2800 12663.1612
13.2900 12577.0426
13.3000 11457.0934
13.3100 11033.8624
13.3200 10353.0670
13.3300 10551.9500
13.3400 9356.5236
13.3500 8757.4920
13.3600 8520.0582
13.3700 7910.4222
13.3800 7401.3804
13.3900 7255.6244
13.4000 6796.9890
13.4100 6567.2292
13.4200 6024.5896
13.4300 6392.7496
13.4400 6175.4654
13.4500 5747.4736
13.4600 6375.1028
13.4700 6236.5280
13.4800 5917.7342
13.4900 4996.0770
13.5000 4729.1804
13.5100 5017.4886
13.5200 5319.5068
13.5300 5037.7116
13.5400 5546.7564
13.5500 5212.3826
13.5600 5143.5420
13.5700 5179.6422
13.5800 5032.2968
13.5900 5338.4928
13.6000 5026.0726
13.6100 5200.3042
13.6200 5203.9780
13.6300 4987.3438
13.6400 4152.6974
13.6500 4619.5654
13.6600 4905.6672
13.6700 4181.0180
13.6800 3852.0258
13.6900 4655.7506
13.7000 4450.8316
13.7100 4582.6574
13.7200 4580.8248
13.7300 5221.2204
13.7400 4571.5526
13.7500 4350.8418
13.7600 4255.9412
13.7700 3982.6526
13.7800 4188.3052
13.7900 4057.6134
13.8000 4053.7356
13.8100 3976.3738
13.8200 4112.3848
13.8300 4296.1528
13.8400 4594.1080
13.8500 4710.4604
13.8600 4526.2920
13.8700 4916.1270
13.8800 4697.7972
13.8900 4200.0700
13.9000 4323.9512
13.9100 3971.7698
13.9200 4312.5056
13.9300 3857.7578
13.9400 4101.4094
13.9500 3970.9604
13.9600 4614.6108
13.9700 4668.1488
13.9800 4255.2246
13.9900 4420.1386
14.0000 3948.7426
14.0100 3975.5854
14.0200 4296.5118
14.0300 4183.4902
14.0400 3822.1634
14.0500 4160.2980
14.0600 4090.5446
14.0700 3840.4266
14.0800 3902.6580
14.0900 4118.8756
14.1000 4267.5226
14.1100 3978.3582
14.1200 3819.3266
14.1300 4513.1470
14.1400 4398.8550
14.1500 4463.7360
14.1600 4407.0724
14.1700 4166.6960
14.1800 3959.5770
14.1900 3728.2906
14.2000 4360.9904
14.2100 3937.1816
14.2200 4403.8610
14.2300 4232.0406
14.2400 3965.2048
14.2500 4296.6960
14.2600 4167.1284
14.2700 4361.0646
14.2800 3861.0440
14.2900 4302.2994
14.3000 4239.0764
14.3100 4279.1474
14.3200 3925.3420
14.3300 4692.2094
14.3400 4332.9194
14.3500 4477.6098
14.3600 5121.7982
14.3700 4596.7778
14.3800 5225.0122
14.3900 4346.9122
14.4000 4581.0836
14.4100 4673.6318
14.4200 4925.2502
14.4300 5143.7974
14.4400 5093.3782
14.4500 4739.1840
14.4600 4717.9942
14.4700 4803.3834
14.4800 4871.6242
14.4900 4972.0058
14.5000 5366.6972
14.5100 5085.7676
14.5200 5810.2112
14.5300 6274.8190
14.5400 5855.7332
14.5500 6290.6800
14.5600 5986.5240
14.5700 6581.7764
14.5800 6486.0464
14.5900 6682.8624
14.6000 7027.9678
14.6100 7187.5016
14.6200 6258.9046
14.6300 7528.2802
14.6400 7773.4828
14.6500 7367.0232
14.6600 7928.3412
14.6700 8416.0060
14.6800 8497.4258
14.6900 8176.8520
14.7000 9508.3506
14.7100 8585.2620
14.7200 9082.6904
14.7300 9494.2006
14.7400 10014.2222
14.7500 10900.9970
14.7600 11711.6068
14.7700 10993.8608
14.7800 12157.8684
14.7900 11740.9220
14.8000 13013.3444
14.8100 13103.6876
14.8200 13669.3462
14.8300 14582.4636
14.8400 15005.2520
14.8500 15347.6136
14.8600 17537.6180
14.8700 18408.2988
14.8800 19377.8422
14.8900 20613.2426
14.9000 21338.2528
14.9100 23094.9158
14.9200 23129.1036
14.9300 23789.0056
14.9400 23801.5422
14.9500 24884.5336
14.9600 24848.3948
14.9700 23649.6074
14.9800 24787.0728
14.9900 25197.1516
15.0000 23595.5098
15.0100 23046.2484
15.0200 22580.9590
15.0300 21685.8642
15.0400 20732.1736
15.0500 19464.5222
15.0600 18464.6626
15.0700 17696.4620
15.0800 15582.1034
15.0900 14441.4184
15.1000 13750.5676
15.1100 11210.1470
15.1200 10892.2780
15.1300 9382.2856
15.1400 9461.0066
15.1500 7517.3722
15.1600 7174.3002
15.1700 6461.9298
15.1800 5980.8660
15.1900 5676.7608
15.2000 5335.1394
15.2100 5088.3382
15.2200 5089.1840
15.2300 5060.8628
15.2400 4707.6198
15.2500 4717.2816
15.2600 5384.8368
15.2700 4800.4436
15.2800 4456.3146
15.2900 3980.1186
15.3000 4285.6658
15.3100 4345.8068
15.3200 3938.7106
15.3300 4088.4466
15.3400 3819.1452
15.3500 3789.2696
15.3600 3772.4844
15.3700 3844.3692
15.3800 3523.9892
15.3900 3568.4900
15.4000 3765.1974
15.4100 3256.7510
15.4200 3790.5156
15.4300 3823.2468
15.4400 3302.9464
15.4500 3420.3102
15.4600 3312.3318
15.4700 3067.6718
15.4800 3345.1794
15.4900 3466.9232
15.5000 3684.7424
15.5100 3365.3444
15.5200 3315.0564
15.5300 3078.4512
15.5400 3445.1250
15.5500 3550.9302
15.5600 3131.5826
15.5700 2934.8290
15.5800 3380.2778
15.5900 3286.1340
15.6000 3008.5914
15.6100 3077.9736
15.6200 3175.0274
15.6300 2915.5710
15.6400 3131.2512
15.6500 3332.9852
15.6600 2736.3910
15.6700 3259.7162
15.6800 3210.2228
15.6900 3564.9416
15.7000 3310.4596
15.7100 3569.4380
15.7200 3146.0778
15.7300 3481.8136
15.7400 3146.5512
15.7500 2890.3662
15.7600 3521.4536
15.7700 3063.4724
15.7800 3194.6390
15.7900 3415.2442
15.8000 2999.7762
15.8100 3052.0396
15.8200 3460.8472
15.8300 3169.4174
15.8400 3464.3954
15.8500 3343.2924
15.8600 3367.9374
15.8700 3210.2392
15.8800 3049.5216
15.8900 3254.5632
15.9000 3348.9088
15.9100 2798.9172
15.9200 3350.3588
15.9300 3313.7476
15.9400 3251.1328
15.9500 2969.4886
15.9600 3387.4366
15.9700 3615.3176
15.9800 3770.4874
15.9900 3452.0668
16.0000 3355.4570
16.0100 3278.9002
16.0200 3384.2240
16.0300 3502.6482
16.0400 3749.2398
16.0500 3940.4458
16.0600 3776.0026
16.0700 3479.4044
16.0800 3874.1560
16.0900 4155.2674
16.1000 4141.4076
16.1100 4386.0734
16.1200 3687.9402
16.1300 4378.6992
16.1400 4246.1492
16.1500 4520.9534
16.1600 4655.4946
16.1700 4329.6474
16.1800 4168.4054
16.1900 4306.8818
16.2000 4142.6414
16.2100 4338.5696
16.2200 4736.6944
16.2300 4610.6074
16.2400 5421.9834
16.2500 5445.2906
16.2600 5139.7466
16.2700 5557.3206
16.2800 5650.6072
16.2900 5815.6988
16.3000 5749.8490
16.3100 6096.7830
16.3200 6678.5960
16.3300 7057.6990
16.3400 7002.5900
16.3500 6962.2350
16.3600 7556.0842
16.3700 7573.6084
16.3800 7518.0694
16.3900 8093.3788
16.4000 8692.7836
16.4100 9061.2560
16.4200 8595.5668
16.4300 9334.2988
16.4400 9424.6154
16.4500 9790.9170
16.4600 10594.8436
16.4700 11468.0928
16.4800 12039.5132
16.4900 12877.2726
16.5000 13029.5288
16.5100 13472.2514
16.5200 14739.2384
16.5300 15178.7750
16.5400 15374.7122
16.5500 17431.6000
16.5600 17909.0840
16.5700 19103.7476
16.5800 19755.9204
16.5900 19688.9750
16.6000 21873.1404
16.6100 23752.3784
16.6200 25321.0184
16.6300 26774.3734
16.6400 28281.6000
16.6500 28831.1116
16.6600 30367.6596
16.6700 32057.2124
16.6800 32329.8706
16.6900 33587.0972
16.7000 35339.1846
16.7100 34707.9630
16.7200 35447.6522
16.7300 34944.7632
16.7400 33868.4530
16.7500 34512.4430
16.7600 32211.0066
16.7700 30738.4684
16.7800 30640.0878
16.7900 28508.2600
16.8000 26366.9230
16.8100 24050.1608
16.8200 23117.7876
16.8300 21980.0822
16.8400 19105.7496
16.8500 18612.4776
16.8600 16484.5988
16.8700 14663.6872
16.8800 12739.7928
16.8900 11540.7512
16.9000 9931.0344
16.9100 9192.3696
16.9200 8651.6714
16.9300 7739.4622
16.9400 6938.5492
16.9500 6573.1258
16.9600 6132.9844
16.9700 6150.9440
16.9800 5692.1574
16.9900 5335.7416
17.0000 6348.9294
17.0100 6274.3296
17.0200 5450.7630
17.0300 5213.7634
17.0400 4853.6510
17.0500 4506.7724
17.0600 4587.8932
17.0700 4678.7944
17.0800 4618.2490
17.0900 3984.3934
17.1000 4172.2626
17.1100 3787.8138
17.1200 3816.7038
17.1300 3909.6802
17.1400 4247.6980
17.1500 3886.7154
17.1600 4059.7654
17.1700 3950.8678
17.1800 3875.4476
17.1900 3803.3318
17.2000 3843.7594
17.2100 3877.5722
17.2200 3660.7640
17.2300 3412.2200
17.2400 3672.2506
17.2500 3345.5724
17.2600 4083.3574
17.2700 4021.0404
17.2800 4043.1814
17.2900 3556.6698
17.3000 3924.6412
17.3100 3954.5640
17.3200 3653.6048
17.3300 3535.4604
17.3400 3668.3692
17.3500 3890.6364
17.3600 3147.4098
17.3700 3700.9176
17.3800 3690.6314
17.3900 3645.8352
17.4000 3724.1966
17.4100 3941.4264
17.4200 4356.8680
17.4300 3700.2510
17.4400 3859.0404
17.4500 3909.2092
17.4600 4208.8100
17.4700 4211.7454
17.4800 3721.5148
17.4900 3812.3960
17.5000 3997.0538
17.5100 3651.9422
17.5200 3901.1342
17.5300 3925.2454
17.5400 4061.6442
17.5500 4270.2510
17.5600 4543.9428
17.5700 4278.7588
17.5800 4522.7336
17.5900 4423.9934
17.6000 4174.3822
17.6100 4509.2326
17.6200 4303.2898
17.6300 4831.1904
17.6400 4537.7254
17.6500 5066.1224
17.6600 4961.2864
17.6700 5246.9976
17.6800 5309.2224
17.6900 5361.3460
17.7000 5308.2606
17.7100 5766.0014
17.7200 6312.4064
17.7300 6291.8112
17.7400 5833.7774
17.7500 6282.9950
17.7600 6455.0674
17.7700 7407.5028
17.7800 6856.2546
17.7900 7096.6074
17.8000 7452.2018
17.8100 7879.6600
17.8200 8024.6674
17.8300 7899.9548
17.8400 8415.0232
17.8500 9087.6994
17.8600 9031.7362
17.8700 9745.3430
17.8800 10243.3340
17.8900 10344.7296
17.9000 11208.2458
17.9100 10970.4508
17.9200 12781.7616
17.9300 12553.7292
17.9400 12660.4818
17.9500 14716.0654
17.9600 14959.0190
17.9700 15597.0398
17.9800 16020.7468
17.9900 17052.9124
18.0000 18901.2674
18.0100 19618.4468
18.0200 20310.3352
18.0300 21168.2576
18.0400 22733.3658
18.0500 24097.5484
18.0600 24557.1960
18.0700 25861.9914
18.0800 28311.2448
18.0900 30821.3990
18.1000 33510.9090
18.1100 34410.9986
18.1200 36463.3748
18.1300 39373.3520
18.1400 42055.0538
18.1500 46626.3590
18.1600 50517.8060
18.1700 54068.3472
18.1800 55244.8772
18.1900 60157.7840
18.2000 64461.6334
18.2100 69612.0036
18.2200 74625.6754
18.2300 78575.4070
18.2400 82736.7838
18.2500 85610.4492
18.2600 92339.4694
18.2700 95692.8710
18.2800 97712.5976
18.2900 97088.9078
18.3000 96944.7754
18.3100 97472.0866
18.3200 97502.8076
18.3300 97349.4628
18.3400 94647.3876
18.3500 90205.2734
18.3600 85739.0056
18.3700 81456.3964
18.3800 75577.1648
18.3900 72071.4112
18.4000 69462.4186
18.4100 59486.6984
18.4200 54806.0872
18.4300 50299.3938
18.4400 44668.7704
18.4500 40400.2198
18.4600 36124.8982
18.4700 30427.9764
18.4800 27863.5234
18.4900 24604.7872
18.5000 21703.1006
18.5100 17812.9802
18.5200 15995.2902
18.5300 14936.1044
18.5400 13673.1882
18.5500 12243.4336
18.5600 11622.4100
18.5700 10673.0886
18.5800 10818.7490
18.5900 9909.7362
18.6000 9148.6846
18.6100 9532.1838
18.6200 8522.7544
18.6300 7895.5094
18.6400 7868.8752
18.6500 7062.2416
18.6600 6997.2478
18.6700 7240.3498
18.6800 6080.2552
18.6900 5700.0930
18.7000 5781.3700
18.7100 5440.3738
18.7200 5965.9306
18.7300 5717.6498
18.7400 5045.1014
18.7500 5207.9366
18.7600 5099.4120
18.7700 4644.3670
18.7800 5201.8422
18.7900 4691.6478
18.8000 4676.0660
18.8100 4619.8070
18.8200 4622.6160
18.8300 4562.8804
18.8400 4829.8380
18.8500 4890.6870
18.8600 4339.3906
18.8700 3899.6096
18.8800 4225.1956
18.8900 4434.8526
18.9000 4426.3132
18.9100 4437.2844
18.9200 4443.5124
18.9300 4430.1706
18.9400 4433.2778
18.9500 4190.0752
18.9600 4554.9342
18.9700 4068.2696
18.9800 4443.0068
18.9900 3828.2010
19.0000 4074.9936
19.0100 4884.7184
19.0200 4330.9590
19.0300 4353.1316
19.0400 4179.4930
19.0500 3877.5820
19.0600 4294.0868
19.0700 3831.8324
19.0800 3723.0744
19.0900 3844.3500
19.1000 3857.5838
19.1100 4116.1922
19.1200 3858.4758
19.1300 4204.8630
19.1400 3733.7016
19.1500 4045.4628
19.1600 4300.8346
19.1700 4122.9326
19.1800 4774.7716
19.1900 4009.4834
19.2000 4411.8104
19.2100 4022.1496
19.2200 3995.9004
19.2300 3958.0066
19.2400 4170.5984
19.2500 3778.1654
19.2600 4106.1542
19.2700 4158.1808
19.2800 4349.9720
19.2900 4293.0054
19.3000 4284.9980
19.3100 4582.4606
19.3200 4877.6042
19.3300 4329.7200
19.3400 4242.3462
19.3500 4074.4350
19.3600 4406.2596
19.3700 4557.2342
19.3800 4628.4562
19.3900 4281.3868
19.4000 4302.8478
19.4100 4682.0124
19.4200 4952.1514
19.4300 4859.2478
19.4400 4819.2260
19.4500 5046.1634
19.4600 4765.2414
19.4700 4998.7828
19.4800 5075.5004
19.4900 5679.4622
19.5000 5621.1152
19.5100 5620.1990
19.5200 5618.9988
19.5300 6127.8514
19.5400 6022.5098
19.5500 6295.1690
19.5600 6050.0952
19.5700 6472.0794
19.5800 6960.0972
19.5900 7166.1402
19.6000 7213.9720
19.6100 7921.8298
19.6200 8535.2966
19.6300 8659.4188
19.6400 8432.0542
19.6500 9604.0192
19.6600 9336.6566
19.6700 10064.0014
19.6800 10941.5660
19.6900 11210.6404
19.7000 12040.0004
19.7100 12984.7860
19.7200 12489.2396
19.7300 13674.2034
19.7400 13670.0572
19.7500 12786.7838
19.7600 13029.8106
19.7700 12499.5270
19.7800 12969.1498
19.7900 12563.1236
19.8000 12420.3796
19.8100 12583.8410
19.8200 12037.3698
19.8300 11494.2658
19.8400 10776.6520
19.8500 10311.9140
19.8600 9863.6658
19.8700 9017.9434
19.8800 9521.2290
19.8900 8793.9362
19.9000 7913.6306
19.9100 7750.4974
19.9200 7059.1116
19.9300 6437.5148
19.9400 5958.4284
19.9500 5831.6930
19.9600 5352.0426
19.9700 5463.2518
19.9800 5056.2094
19.9900 4462.0652
20.0000 5083.0470
20.0100 4266.6142
20.0200 4048.4014
20.0300 4256.7856
20.0400 4378.3254
20.0500 3969.3224
20.0600 4115.1112
20.0700 4129.8126
20.0800 3917.0212
20.0900 3879.4548
20.1000 3796.0686
20.1100 3786.8446
20.1200 4073.3374
20.1300 3876.2396
20.1400 3583.7464
20.1500 3505.2806
20.1600 3522.0208
20.1700 3864.4762
20.1800 3631.9028
20.1900 3725.1936
20.2000 3591.3070
20.2100 3823.3236
20.2200 3973.8906
20.2300 3455.6026
20.2400 3426.3388
20.2500 3358.8626
20.2600 3467.6084
20.2700 3213.9696
20.2800 3570.2886
20.2900 3360.9218
20.3000 3416.4976
20.3100 3177.7420
20.3200 3557.9452
20.3300 3420.5792
20.3400 2986.5476
20.3500 3056.4364
20.3600 3479.6980
20.3700 3638.0372
20.3800 3656.3158
20.3900 3379.6382
20.4000 3529.8604
20.4100 3194.2582
20.4200 2951.2586
20.4300 3387.5758
20.4400 3328.7974
20.4500 3329.8634
20.4600 3075.3130
20.4700 3286.0894
20.4800 3032.5676
20.4900 3254.4100
20.5000 3482.8736
20.5100 3411.8054
20.5200 2970.0682
20.5300 2992.3162
20.5400 3178.4304
20.5500 2953.4564
20.5600 3398.3284
20.5700 3406.2846
20.5800 3658.8638
20.5900 3318.1600
20.6000 3284.7512
20.6100 3280.5358
20.6200 2974.6544
20.6300 2820.4092
20.6400 2788.1272
20.6500 3232.6920
20.6600 3150.9146
20.6700 2864.4092
20.6800 3109.3628
20.6900 3181.9380
20.7000 3386.7098
20.7100 3131.4960
20.7200 3383.7956
20.7300 2855.1794
20.7400 3236.5280
20.7500 3254.7816
20.7600 3021.2344
20.7700 3146.0276
20.7800 3273.9234
20.7900 3321.9650
20.8000 3106.2370
20.8100 2781.2192
20.8200 3354.8132
20.8300 3128.7348
20.8400 2944.1050
20.8500 2792.4880
20.8600 3053.5486
20.8700 2944.8638
20.8800 3344.9518
20.8900 3082.6540
20.9000 3070.7650
20.9100 3069.7758
20.9200 3312.2752
20.9300 3029.0444
20.9400 2946.9378
20.9500 3130.0416
20.9600 3269.9410
20.9700 3437.4530
20.9800 3521.4150
20.9900 3303.6600
21.0000 3249.3748
21.0100 3164.4388
21.0200 2880.8352
21.0300 3005.4026
21.0400 3119.9110
21.0500 3030.4542
21.0600 3262.3078
21.0700 3252.7942
21.0800 3284.8698
21.0900 2986.4518
21.1000 3085.2958
21.1100 3382.0612
21.1200 3361.3576
21.1300 3231.4978
21.1400 3112.8094
21.1500 3315.6712
21.1600 3201.7052
21.1700 2981.1902
21.1800 2887.1494
21.1900 2699.9870
21.2000 2953.8694
21.2100 3189.4630
21.2200 2632.5732
21.2300 3116.2028
21.2400 2855.8096
21.2500 3053.7134
21.2600 3038.9010
21.2700 3101.5842
21.2800 3409.0438
21.2900 3447.8572
21.3000 3069.4590
21.3100 3175.4886
21.3200 3050.3768
21.3300 2915.9340
21.3400 3004.6218
21.3500 3523.5578
21.3600 3064.4104
21.3700 3429.0876
21.3800 3384.1952
21.3900 3404.8610
21.4000 2998.2894
21.4100 3281.7070
21.4200 2824.8524
21.4300 2716.2064
21.4400 2720.1312
21.4500 2716.0180
21.4600 3089.5478
21.4700 3054.0964
21.4800 3654.4442
21.4900 3243.3278
21.5000 3405.0436
21.5100 3395.6226
21.5200 2863.3428
21.5300 2946.7448
21.5400 3230.6948
21.5500 3374.1990
21.5600 3626.3566
21.5700 3556.8176
21.5800 3397.1796
21.5900 3102.3334
21.6000 3399.0072
21.6100 3523.6738
21.6200 3425.7388
21.6300 3188.0720
21.6400 3572.5894
21.6500 3427.2992
21.6600 3358.2590
21.6700 3609.4802
21.6800 3573.6460
21.6900 3229.0864
21.7000 3093.0694
21.7100 3475.0184
21.7200 3948.5080
21.7300 3477.2090
21.7400 3805.8332
21.7500 3460.0642
21.7600 3228.1866
21.7700 3295.3932
21.7800 3501.5142
21.7900 3708.3208
21.8000 3207.6988
21.8100 3246.3412
21.8200 3700.4458
21.8300 3398.4528
21.8400 3602.6044
21.8500 3523.5720
21.8600 3298.8220
21.8700 3753.5164
21.8800 3325.0830
21.8900 3362.2840
21.9000 3431.9948
21.9100 3861.9364
21.9200 3906.8206
21.9300 3607.9610
21.9400 3798.6336
21.9500 3825.7832
21.9600 3687.1576
21.9700 4229.4996
21.9800 4344.1264
21.9900 4206.8438
22.0000 3769.0214
22.0100 4536.3506
22.0200 4304.8222
22.0300 4831.6518
22.0400 4712.1516
22.0500 4684.8602
22.0600 5017.9988
22.0700 5172.0520
22.0800 5325.6862
22.0900 5704.9840
22.1000 5910.3998
22.1100 6124.8780
22.1200 6083.8268
22.1300 6500.6450
22.1400 6600.9486
22.1500 7237.4872
22.1600 6660.4900
22.1700 7647.6324
22.1800 7859.8500
22.1900 8194.0796
22.2000 8904.3212
22.2100 9028.0202
22.2200 10328.2288
22.2300 10755.2602
22.2400 10591.3076
22.2500 11601.7354
22.2600 11947.0144
22.2700 13390.3940
22.2800 14221.3664
22.2900 15967.1296
22.3000 16512.2274
22.3100 17386.5174
22.3200 17914.9902
22.3300 18609.3384
22.3400 19536.0474
22.3500 21242.7754
22.3600 22718.2800
22.3700 23029.7242
22.3800 23759.7758
22.3900 24483.7342
22.4000 23949.0052
22.4100 24276.4974
22.4200 24178.2714
22.4300 24585.0322
22.4400 24069.5678
22.4500 22670.8578
22.4600 22117.1854
22.4700 21282.5866
22.4800 20034.9690
22.4900 19195.5912
22.5000 19412.1012
22.5100 17226.1800
22.5200 17154.9398
22.5300 14809.2550
22.5400 13956.6956
22.5500 13292.3624
22.5600 11661.3322
22.5700 11043.7562
22.5800 9568.4458
22.5900 8472.2784
22.6000 7530.3802
22.6100 7243.4844
22.6200 7228.1422
22.6300 7060.1704
22.6400 5924.7568
22.6500 5754.9144
22.6600 5458.9122
22.6700 4614.6546
22.6800 4681.0806
22.6900 4575.8688
22.7000 4088.1398
22.7100 4291.7414
22.7200 4661.6572
22.7300 4177.7244
22.7400 4478.7048
22.7500 4210.4638
22.7600 3954.6124
22.7700 4058.4984
22.7800 4169.8324
22.7900 3890.1332
22.8000 3752.1938
22.8100 3937.6472
22.8200 3815.5568
22.8300 4180.1884
22.8400 3911.1446
22.8500 4137.5462
22.8600 3779.3818
22.8700 3468.7014
22.8800 3203.1402
22.8900 4103.7288
22.9000 3940.5386
22.9100 3822.7484
22.9200 4256.3232
22.9300 3386.0794
22.9400 3539.1568
22.9500 3838.6170
22.9600 3569.5668
22.9700 3123.2968
22.9800 3266.5118
22.9900 3364.6842
23.0000 3788.0806
23.0100 3742.1512
23.0200 3611.1462
23.0300 3448.6948
23.0400 3222.3056
23.0500 3760.2002
23.0600 3401.2552
23.0700 3747.6298
23.0800 3373.5064
23.0900 3291.7058
23.1000 3948.0510
23.1100 3361.2454
23.1200 3271.2214
23.1300 3134.7324
23.1400 3884.3738
23.1500 3428.7578
23.1600 3770.4438
23.1700 3535.4566
23.1800 3336.0738
23.1900 3108.6118
23.2000 3910.7046
23.2100 3592.8888
23.2200 3096.8768
23.2300 3544.7256
23.2400 3775.5066
23.2500 3821.2038
23.2600 3618.7676
23.2700 3623.8900
23.2800 3566.2868
23.2900 3642.7528
23.3000 3494.7204
23.3100 3827.2294
23.3200 4036.0580
23.3300 3746.4940
23.3400 3498.1270
23.3500 3951.0294
23.3600 4151.2022
23.3700 4079.6160
23.3800 4399.7778
23.3900 3827.2728
23.4000 4272.2564
23.4100 4302.8132
23.4200 4353.4896
23.4300 4418.8318
23.4400 4552.6022
23.4500 4525.0768
23.4600 4588.3214
23.4700 4734.0216
23.4800 4924.0376
23.4900 5241.7694
23.5000 4844.2230
23.5100 4839.0498
23.5200 5463.2228
23.5300 5876.9124
23.5400 5990.6188
23.5500 5555.4056
23.5600 6053.8412
23.5700 6324.7228
23.5800 6714.1638
23.5900 6288.8448
23.6000 6650.8188
23.6100 6528.3046
23.6200 7138.0060
23.6300 7362.8550
23.6400 5938.0026
23.6500 6443.5628
23.6600 6504.1198
23.6700 6618.3320
23.6800 6765.0828
23.6900 5927.3382
23.7000 6536.2894
23.7100 6005.5872
23.7200 6184.9350
23.7300 5837.0092
23.7400 5285.8952
23.7500 5239.2762
23.7600 5099.1486
23.7700 5313.6718
23.7800 4904.7898
23.7900 5029.4770
23.8000 4523.4630
23.8100 4641.9352
23.8200 4492.1860
23.8300 4470.0786
23.8400 4614.7400
23.8500 4160.9578
23.8600 4104.1286
23.8700 3865.2450
23.8800 3566.3112
23.8900 3804.2974
23.9000 4065.5810
23.9100 3694.7096
23.9200 4564.3086
23.9300 3989.8296
23.9400 4194.5684
23.9500 4121.8984
23.9600 4380.2694
23.9700 3399.9136
23.9800 3711.2996
23.9900 3970.7052
24.0000 4070.9844
24.0100 4093.7490
24.0200 3658.7514
24.0300 3521.2034
24.0400 3691.8558
24.0500 4101.3740
24.0600 3690.3200
24.0700 3841.1010
24.0800 3700.0760
24.0900 4299.6074
24.1000 4307.7912
24.1100 3943.5008
24.1200 4201.3264
24.1300 4229.9770
24.1400 4190.4824
24.1500 3694.1624
24.1600 4061.8302
24.1700 4081.9132
24.1800 4372.1222
24.1900 4302.6092
24.2000 4355.3976
24.2100 4057.0552
24.2200 4004.0764
24.2300 5130.9524
24.2400 4423.8434
24.2500 4223.1680
24.2600 4849.6760
24.2700 4615.6906
24.2800 4263.3708
24.2900 4837.5518
24.3000 4613.8418
24.3100 5232.2434
24.3200 5102.0702
24.3300 4818.9784
24.3400 5058.8958
24.3500 4921.4126
24.3600 5330.6076
24.3700 5931.5852
24.3800 5832.2470
24.3900 5264.3992
24.4000 5586.2462
24.4100 5963.0218
24.4200 6356.6894
24.4300 6813.1038
24.4400 6814.1984
24.4500 6786.9934
24.4600 7420.1956
24.4700 7686.3164
24.4800 8093.5542
24.4900 8190.5660
24.5000 8464.3230
24.5100 9475.6632
24.5200 8997.4020
24.5300 9861.2854
24.5400 11468.3696
24.5500 11458.9702
24.5600 12475.4232
24.5700 12962.9812
24.5800 13739.8550
24.5900 14409.5826
24.6000 15617.0064
24.6100 16566.3432
24.6200 17491.9596
24.6300 19473.4700
24.6400 21525.9602
24.6500 23626.0030
24.6600 24484.0454
24.6700 25541.2374
24.6800 27323.2748
24.6900 29228.8656
24.7000 32169.1732
24.7100 32618.5038
24.7200 35860.7014
24.7300 35891.0604
24.7400 40006.5796
24.7500 40972.9818
24.7600 41544.4418
24.7700 42755.4768
24.7800 43675.1018
24.7900 42334.7820
24.8000 41773.9706
24.8100 41179.0242
24.8200 39284.6964
24.8300 39550.2888
24.8400 39186.5072
24.8500 36950.7446
24.8600 35372.6644
24.8700 34615.5844
24.8800 32402.5432
24.8900 30139.7440
24.9000 26730.1596
24.9100 24264.4368
24.9200 23610.3332
24.9300 20167.4886
24.9400 19515.8996
24.9500 17347.6136
24.9600 15399.5026
24.9700 13418.8944
24.9800 12097.9798
24.9900 11850.8444
25.0000 10982.3192
25.0100 9949.2350
25.0200 9230.7282
25.0300 9292.4134
25.0400 8000.5142
25.0500 7795.3984
25.0600 7421.6340
25.0700 6702.7634
25.0800 6679.8300
25.0900 6438.9022
25.1000 6731.5684
25.1100 6226.4084
25.1200 6178.5884
25.1300 5952.0320
25.1400 5911.5310
25.1500 5856.4992
25.1600 5538.6744
25.1700 5122.2316
25.1800 5868.3554
25.1900 5046.9548
25.2000 5395.8460
25.2100 5315.6846
25.2200 4799.8636
25.2300 5179.6072
25.2400 5008.9294
25.2500 5087.4736
25.2600 5036.3932
25.2700 4836.4812
25.2800 4835.9742
25.2900 4768.2378
25.3000 4971.4956
25.3100 5168.3238
25.3200 4573.1100
25.3300 4916.0996
25.3400 4847.9528
25.3500 5081.1116
25.3600 5090.7136
25.3700 4966.1748
25.3800 4443.3436
25.3900 4690.1810
25.4000 4914.0146
25.4100 4639.2680
25.4200 4659.8236
25.4300 4776.7186
25.4400 5374.8804
25.4500 4959.8008
25.4600 5509.5672
25.4700 5367.8284
25.4800 5169.2204
25.4900 5330.7078
25.5000 5735.3586
25.5100 5953.2816
25.5200 5119.5822
25.5300 6030.5202
25.5400 5843.4488
25.5500 6215.3076
25.5600 5525.4002
25.5700 5899.2624
25.5800 6786.6856
25.5900 6915.6260
25.6000 7183.5094
25.6100 7004.1448
25.6200 7207.6122
25.6300 7405.6834
25.6400 8130.1406
25.6500 7904.7826
25.6600 7625.1994
25.6700 8532.6442
25.6800 9169.8192
25.6900 10122.0958
25.7000 10040.6668
25.7100 10446.4854
25.7200 11838.2162
25.7300 11379.2744
25.7400 13236.0992
25.7500 13517.7368
25.7600 14356.0740
25.7700 14794.9666
25.7800 14782.7708
25.7900 16357.9996
25.8000 17518.2068
25.8100 18039.5202
25.8200 19916.9372
25.8300 21190.7206
25.8400 21939.4612
25.8500 23105.8166
25.8600 22982.0496
25.8700 24215.6576
25.8800 23529.7384
25.8900 24163.0880
25.9000 25111.6556
25.9100 24719.1650
25.9200 24016.7378
25.9300 24416.2516
25.9400 24067.9932
25.9500 23783.9294
25.9600 21303.1738
25.9700 21148.3662
25.9800 19684.7046
25.9900 19357.2794
26.0000 17797.7274
26.0100 16728.4638
26.0200 15554.5116
26.0300 15087.0860
26.0400 13658.5216
26.0500 13213.7054
26.0600 11648.8862
26.0700 11000.1902
26.0800 9678.5014
26.0900 9848.6278
26.1000 9645.7896
26.1100 8764.0330
26.1200 8326.6714
26.1300 8126.7684
26.1400 7829.8334
26.1500 7265.6778
26.1600 7189.9028
26.1700 6922.7580
26.1800 6467.4606
26.1900 6873.5270
26.2000 6165.5676
26.2100 5970.3426
26.2200 6294.6548
26.2300 6330.6468
26.2400 6123.7778
26.2500 6224.4100
26.2600 6114.8396
26.2700 6224.0132
26.2800 5858.6904
26.2900 5909.7484
26.3000 5520.7972
26.3100 5625.7700
26.3200 5887.7960
26.3300 5662.1944
26.3400 5589.5620
26.3500 5590.9974
26.3600 5587.4282
26.3700 5445.9646
26.3800 5495.3796
26.3900 6112.3992
26.4000 5685.0962
26.4100 5994.7190
26.4200 6272.6186
26.4300 5853.5498
26.4400 6121.9798
26.4500 6232.3608
26.4600 6178.0944
26.4700 6467.1804
26.4800 6059.3674
26.4900 5747.7264
26.5000 6468.5924
26.5100 6721.3704
26.5200 6865.1454
26.5300 6631.4580
26.5400 6710.7972
26.5500 7387.9044
26.5600 7235.1206
26.5700 8205.3512
26.5800 8152.1250
26.5900 8304.3090
26.6000 8621.6674
26.6100 9127.4120
26.6200 8992.5140
26.6300 9944.5048
26.6400 9979.6794
26.6500 11125.5768
26.6600 11672.9532
26.6700 12256.6986
26.6800 13798.9206
26.6900 13990.9770
26.7000 14928.8594
26.7100 15584.1024
26.7200 16737.5254
26.7300 17591.9352
26.7400 18848.2890
26.7500 19404.7098
26.7600 20716.4062
26.7700 23159.3832
26.7800 24470.3084
26.7900 27355.7272
26.8000 28957.6762
26.8100 31337.9924
26.8200 33231.7220
26.8300 36645.5932
26.8400 38556.2744
26.8500 41784.2122
26.8600 45707.2794
26.8700 48936.5356
26.8800 50247.7010
26.8900 54089.0502
26.9000 56646.6960
26.9100 61173.5800
26.9200 62752.1036
26.9300 65494.1650
26.9400 65979.1952
26.9500 67127.6896
26.9600 68483.1950
26.9700 68647.3714
26.9800 66851.5706
26.9900 64851.7944
27.0000 64572.3266
27.0100 63249.4384
27.0200 61415.4826
27.0300 59553.8086
27.0400 54072.9900
27.0500 52010.8520
27.0600 48117.6554
27.0700 44757.9712
27.0800 41707.5398
27.0900 38682.5846
27.1000 34631.4208
27.1100 32699.5178
27.1200 29095.0256
27.1300 26950.9542
27.1400 23712.7462
27.1500 21119.9708
27.1600 18920.0134
27.1700 16554.2388
27.1800 14914.5610
27.1900 13730.2908
27.2000 12723.5922
27.2100 11860.4350
27.2200 11058.6274
27.2300 10476.0224
27.2400 9839.3962
27.2500 10023.5402
27.2600 8661.0168
27.2700 8979.0914
27.2800 8677.4536
27.2900 7786.0876
27.3000 7818.9880
27.3100 7892.2740
27.3200 7051.1470
27.3300 6906.9164
27.3400 6593.4656
27.3500 6239.6982
27.3600 6653.2390
27.3700 6478.8102
27.3800 6738.0910
27.3900 6324.0946
27.4000 5947.5724
27.4100 6431.8298
27.4200 5748.2326
27.4300 6062.4080
27.4400 6251.9298
27.4500 5471.5174
27.4600 5253.9628
27.4700 5522.1908
27.4800 5397.8648
27.4900 5407.7800
27.5000 5136.3830
27.5100 5433.3898
27.5200 5473.9308
27.5300 6164.1108
27.5400 5270.8272
27.5500 4839.0152
27.5600 5282.6660
27.5700 5488.1424
27.5800 5718.7332
27.5900 5553.0686
27.6000 5619.0456
27.6100 5478.4256
27.6200 5263.2364
27.6300 4991.8356
27.6400 5602.5264
27.6500 4898.4024
27.6600 4913.2106
27.6700 5525.2044
27.6800 4714.2238
27.6900 5642.1742
27.7000 5179.3920
27.7100 4644.3258
27.7200 5171.2632
27.7300 4995.3848
27.7400 4956.1874
27.7500 5332.3990
27.7600 4871.7286
27.7700 4927.6392
27.7800 5065.7380
27.7900 4643.4356
27.8000 4612.0666
27.8100 4989.0656
27.8200 5143.4076
27.8300 5301.3032
27.8400 5690.6926
27.8500 5109.2254
27.8600 5340.2552
27.8700 4718.6686
27.8800 4410.1450
27.8900 4875.1608
27.9000 5007.9000
27.9100 5307.6670
27.9200 4823.1130
27.9300 4996.1004
27.9400 4838.4318
27.9500 4669.0430
27.9600 4784.3836
27.9700 4421.5424
27.9800 4836.8214
27.9900 4597.0388
28.0000 4426.6998
28.0100 4850.6388
28.0200 4517.2008
28.0300 4937.0814
28.0400 5071.9304
28.0500 4776.4384
28.0600 4477.9750
28.0700 5067.8482
28.0800 5009.2550
28.0900 5115.1580
28.1000 5265.6790
28.1100 4623.6842
28.1200 4502.2130
28.1300 4922.9558
28.1400 4711.2580
28.1500 5081.2576
28.1600 4917.2526
28.1700 4938.0498
28.1800 4670.7540
28.1900 5310.8084
28.2000 4784.8714
28.2100 5141.8646
28.2200 5186.1746
28.2300 5123.8632
28.2400 4842.9458
28.2500 5106.4006
28.2600 4612.3388
28.2700 4628.4342
28.2800 4860.3652
28.2900 4732.4778
28.3000 5180.7164
28.3100 4883.6492
28.3200 4553.1728
28.3300 4329.6464
28.3400 4402.1088
28.3500 4720.3914
28.3600 5061.2854
28.3700 4137.2530
28.3800 4272.3328
28.3900 4767.4062
28.4000 4756.9458
28.4100 5012.2456
28.4200 5420.9000
28.4300 5048.7142
28.4400 4732.8918
28.4500 5066.2694
28.4600 4383.0246
28.4700 4881.5664
28.4800 5387.0860
28.4900 4785.1756
28.5000 4846.7076
28.5100 4867.8244
28.5200 5135.6068
28.5300 5437.8240
28.5400 4819.7692
28.5500 4540.0172
28.5600 5084.9564
28.5700 5113.5468
28.5800 5273.8794
28.5900 5246.1486
28.6000 5305.8986
28.6100 5211.4440
28.6200 5398.0368
28.6300 4867.1952
28.6400 4922.2280
28.6500 5369.2326
28.6600 5212.6678
28.6700 5494.4956
28.6800 5562.3368
28.6900 5789.9308
28.7000 5335.9472
28.7100 5865.9724
28.7200 5793.8024
28.7300 5325.4700
28.7400 6591.8238
28.7500 6085.2458
28.7600 6064.4242
28.7700 5972.7706
28.7800 6177.5772
28.7900 6762.7752
28.8000 6643.0470
28.8100 6361.2406
28.8200 7061.4136
28.8300 7167.0584
28.8400 7775.8834
28.8500 8266.9276
28.8600 7885.8124
28.8700 8786.1368
28.8800 9321.3522
28.8900 9479.4220
28.9000 9630.0182
28.9100 9714.2568
28.9200 9205.4790
28.9300 9891.8376
28.9400 10466.2292
28.9500 10259.2988
28.9600 11040.9464
28.9700 10923.4690
28.9800 11292.1540
28.9900 11625.2126
29.0000 11578.1158
29.0100 10639.2294
29.0200 11462.5040
29.0300 11290.6220
29.0400 11254.2308
29.0500 10459.6160
29.0600 10455.5338
29.0700 9579.0608
29.0800 9651.1586
29.0900 8929.5268
29.1000 9019.6004
29.1100 8993.6564
29.1200 8361.1634
29.1300 8046.7076
29.1400 7369.7164
29.1500 7455.6534
29.1600 6798.7752
29.1700 7338.8866
29.1800 7103.9780
29.1900 6889.4276
29.2000 5852.8294
29.2100 5785.6410
29.2200 5569.4036
29.2300 5550.8880
29.2400 5979.1214
29.2500 5581.7760
29.2600 5339.6510
29.2700 5522.4182
29.2800 5250.8056
29.2900 5889.0096
29.3000 5822.1562
29.3100 5508.7194
29.3200 5646.5394
29.3300 5377.5834
29.3400 5495.1716
29.3500 5704.3468
29.3600 5333.6538
29.3700 5517.0940
29.3800 5925.8076
29.3900 5750.6694
29.4000 5700.1368
29.4100 5861.2676
29.4200 5738.5234
29.4300 5023.8546
29.4400 5966.5166
29.4500 6045.6940
29.4600 6010.8236
29.4700 5962.2762
29.4800 6044.2714
29.4900 6219.5384
29.5000 6576.8982
29.5100 6499.8470
29.5200 6765.8936
29.5300 6531.6548
29.5400 6672.9208
29.5500 6834.2122
29.5600 7231.3730
29.5700 7621.9890
29.5800 7263.4746
29.5900 7210.7290
29.6000 7755.3086
29.6100 8389.9684
29.6200 7994.8588
29.6300 8866.2374
29.6400 9025.6684
29.6500 9331.5644
29.6600 9546.0744
29.6700 10082.4006
29.6800 10536.0626
29.6900 11648.3318
29.7000 10797.4132
29.7100 13194.9330
29.7200 12885.2600
29.7300 13649.3714
29.7400 13868.5770
29.7500 15450.3408
29.7600 16341.0330
29.7700 17690.2058
29.7800 19609.4136
29.7900 20796.4010
29.8000 22316.2760
29.8100 23818.5486
29.8200 25130.5644
29.8300 26800.5636
29.8400 29457.9712
29.8500 32346.9808
29.8600 33916.6118
29.8700 35636.9384
29.8800 36709.2244
29.8900 39140.6820
29.9000 41634.2610
29.9100 42183.8908
29.9200 42983.0160
29.9300 45059.6516
29.9400 44892.0288
29.9500 44480.3792
29.9600 44853.1454
29.9700 45192.5538
29.9800 44179.2480
29.9900 42532.7108
30.0000 42416.1824
30.0100 39757.9874
30.0200 39224.9348
30.0300 36780.6560
30.0400 34757.7270
30.0500 33185.6628
30.0600 31385.1136
30.0700 28043.3186
30.0800 25506.3354
30.0900 24357.7514
30.1000 22501.2410
30.1100 20276.9938
30.1200 19516.2414
30.1300 16272.3348
30.1400 14598.4914
30.1500 13907.5958
30.1600 13211.7890
30.1700 11923.2096
30.1800 10456.1818
30.1900 10586.5896
30.2000 10308.9936
30.2100 9734.9244
30.2200 9160.2854
30.2300 7914.8900
30.2400 8483.4356
30.2500 7831.3828
30.2600 7450.0412
30.2700 7888.8210
30.2800 7147.5032
30.2900 6913.3062
30.3000 7536.5102
30.3100 7036.1196
30.3200 6990.9998
30.3300 7075.9990
30.3400 7019.7312
30.3500 6875.9618
30.3600 6966.8996
30.3700 6834.5088
30.3800 6689.9398
30.3900 6346.9890
30.4000 6100.6842
30.4100 6262.9124
30.4200 6446.1172
30.4300 6368.2642
30.4400 6499.4476
30.4500 6936.3302
30.4600 6391.6764
30.4700 6780.5480
30.4800 6779.5064
30.4900 7039.7426
30.5000 7332.9376
30.5100 7719.4794
30.5200 7415.7740
30.5300 7474.3362
30.5400 8066.6854
30.5500 8207.5374
30.5600 7374.8678
30.5700 7599.1206
30.5800 8510.0204
30.5900 8710.8846
30.6000 8731.1604
30.6100 9782.1310
30.6200 9885.5306
30.6300 10313.6494
30.6400 11012.8042
30.6500 11264.9332
30.6600 11865.7156
30.6700 11824.7924
30.6800 13129.3580
30.6900 13525.6562
30.7000 13659.6384
30.7100 14721.3134
30.7200 15323.2432
30.7300 18371.7754
30.7400 18408.3760
30.7500 18070.4366
30.7600 20657.0170
30.7700 21550.9338
30.7800 23242.5130
30.7900 24095.1558
30.8000 26854.7444
30.8100 27744.5354
30.8200 28296.7062
30.8300 30870.5486
30.8400 31431.7566
30.8500 32574.5748
30.8600 32901.6460
30.8700 33930.1656
30.8800 35161.6536
30.8900 34332.1900
30.9000 35502.3234
30.9100 33779.3986
30.9200 33836.6476
30.9300 33198.9726
30.9400 31747.1172
30.9500 30698.1608
30.9600 28269.5028
30.9700 28860.0504
30.9800 26358.4716
30.9900 24050.5716
31.0000 23287.6810
31.0100 21728.1860
31.0200 20600.1424
31.0300 18545.4102
31.0400 16271.5160
31.0500 16213.1816
31.0600 14755.5390
31.0700 12937.5366
31.0800 13250.7802
31.0900 11793.7204
31.1000 10991.4042
31.1100 10353.8636
31.1200 10106.5552
31.1300 9775.8912
31.1400 8845.9494
31.1500 8031.4992
31.1600 8136.4690
31.1700 8028.3824
31.1800 7638.2654
31.1900 7485.1196
31.2000 7042.4550
31.2100 7274.0152
31.2200 7307.6482
31.2300 7077.6128
31.2400 7193.4912
31.2500 6929.1982
31.2600 6556.2480
31.2700 6972.4996
31.2800 6627.9552
31.2900 6449.6288
31.3000 7152.2918
31.3100 6513.2528
31.3200 5968.6706
31.3300 6272.7606
31.3400 6406.3354
31.3500 6545.6284
31.3600 6617.2730
31.3700 7240.0300
31.3800 6287.5640
31.3900 6780.7042
31.4000 6881.2708
31.4100 7461.2462
31.4200 6769.4840
31.4300 6868.0836
31.4400 7126.3844
31.4500 7081.3690
31.4600 7569.7490
31.4700 8184.4070
31.4800 7985.6700
31.4900 7546.2662
31.5000 7892.7866
31.5100 8252.0534
31.5200 8664.6098
31.5300 8753.6286
31.5400 8790.4664
31.5500 9137.9842
31.5600 10173.7640
31.5700 9993.8436
31.5800 10450.5422
31.5900 11274.8362
31.6000 12304.1422
31.6100 11824.2798
31.6200 13241.5436
31.6300 13907.9508
31.6400 15073.5332
31.6500 15965.5222
31.6600 16136.7268
31.6700 17428.5502
31.6800 18615.9240
31.6900 18945.9026
31.7000 20462.8438
31.7100 22145.0174
31.7200 23159.9466
31.7300 25221.7386
31.7400 23754.4678
31.7500 25475.4700
31.7600 25928.7008
31.7700 26904.0426
31.7800 27518.6726
31.7900 28262.1176
31.8000 28100.3866
31.8100 27799.7844
31.8200 27741.2882
31.8300 27621.2768
31.8400 26087.0340
31.8500 25471.4090
31.8600 23756.8440
31.8700 24193.0644
31.8800 22812.3698
31.8900 21134.8144
31.9000 19767.4906
31.9100 18966.1866
31.9200 18275.7792
31.9300 17148.0204
31.9400 16666.4694
31.9500 14316.1356
31.9600 13507.5582
31.9700 13122.4142
31.9800 11579.7598
31.9900 10962.4226
32.0000 10342.3380
32.0100 9858.1390
32.0200 9416.9148
32.0300 9142.8100
32.0400 8056.9748
32.0500 7312.2456
32.0600 7898.8592
32.0700 7312.7502
32.0800 7582.3506
32.0900 7643.7038
32.1000 7019.9732
32.1100 6386.0876
32.1200 6608.1502
32.1300 6735.7926
32.1400 7107.2342
32.1500 6171.1940
32.1600 7134.4992
32.1700 6697.2438
32.1800 6399.4116
32.1900 6568.2602
32.2000 6736.6852
32.2100 6470.3114
32.2200 6533.4992
32.2300 6349.4394
32.2400 6234.3974
32.2500 6930.2286
32.2600 7218.4774
32.2700 7411.7442
32.2800 7148.8460
32.2900 6545.8592
32.3000 6877.2720
32.3100 7026.9400
32.3200 7151.7782
32.3300 7247.0708
32.3400 7625.9216
32.3500 8050.2466
32.3600 8254.6498
32.3700 7550.4420
32.3800 8225.3682
32.3900 8013.1628
32.4000 7994.1192
32.4100 9455.0344
32.4200 9501.6022
32.4300 9695.6258
32.4400 10819.4254
32.4500 10858.1776
32.4600 11588.9364
32.4700 11253.2958
32.4800 12163.0188
32.4900 12726.3662
32.5000 14170.9616
32.5100 14521.1232
32.5200 15839.6158
32.5300 16600.6072
32.5400 17308.5124
32.5500 19177.7648
32.5600 20233.7646
32.5700 22150.9582
32.5800 22696.7184
32.5900 25141.6320
32.6000 25963.7858
32.6100 26224.5992
32.6200 29006.1360
32.6300 28637.1704
32.6400 31212.7644
32.6500 32236.8612
32.6600 33110.3374
32.6700 33282.2550
32.6800 32655.9408
32.6900 34015.1164
32.7000 33152.4394
32.7100 32219.3278
32.7200 33061.2182
32.7300 32881.5328
32.7400 31143.9474
32.7500 29222.6562
32.7600 28192.5924
32.7700 26555.8512
32.7800 25806.1848
32.7900 23972.4366
32.8000 22192.5292
32.8100 21160.0016
32.8200 19354.8156
32.8300 17816.9800
32.8400 17364.2782
32.8500 15640.7074
32.8600 13873.3754
32.8700 13556.2022
32.8800 12071.6228
32.8900 10401.2136
32.9000 10754.3792
32.9100 10084.7504
32.9200 9878.6336
32.9300 9044.3950
32.9400 8742.2800
32.9500 8161.1078
32.9600 8022.9446
32.9700 7206.3756
32.9800 7346.8038
32.9900 7197.6726
33.0000 6778.5196
33.0100 7085.8754
33.0200 7107.7270
33.0300 5589.9856
33.0400 6422.6954
33.0500 6567.3554
33.0600 5881.9000
33.0700 5661.5520
33.0800 5969.5654
33.0900 5823.1292
33.1000 5791.9158
33.1100 6390.6906
33.1200 6241.5940
33.1300 6382.3746
33.1400 5542.9748
33.1500 5528.0960
33.1600 5519.4952
33.1700 6201.3484
33.1800 6112.9034
33.1900 5691.5090
33.2000 5934.6618
33.2100 5985.6476
33.2200 5955.9342
33.2300 5688.2472
33.2400 5530.3756
33.2500 5805.0614
33.2600 6161.2524
33.2700 6450.0962
33.2800 6491.8900
33.2900 6381.1050
33.3000 6376.4490
33.3100 5901.9958
33.3200 6119.8476
33.3300 6307.0694
33.3400 6783.4794
33.3500 6853.0400
33.3600 6254.9332
33.3700 6349.0474
33.3800 6419.2876
33.3900 7061.6664
33.4000 6689.8178
33.4100 6904.5238
33.4200 7426.0712
33.4300 7731.7560
33.4400 7928.2170
33.4500 8038.8626
33.4600 8629.7790
33.4700 8655.1198
33.4800 8134.6762
33.4900 8799.0672
33.5000 8834.9090
33.5100 9482.1268
33.5200 9450.9714
33.5300 9341.1600
33.5400 8877.1942
33.5500 9101.5340
33.5600 9808.0506
33.5700 9318.3136
33.5800 10064.9312
33.5900 9384.3912
33.6000 9194.2504
33.6100 8986.2202
33.6200 8884.2376
33.6300 8895.4132
33.6400 8505.2586
33.6500 7820.9548
33.6600 8021.7712
33.6700 8797.8730
33.6800 7423.9452
33.6900 8299.5860
33.7000 7428.9728
33.7100 6749.3332
33.7200 6573.2946
33.7300 6230.0634
33.7400 7108.4904
33.7500 6398.0902
33.7600 5979.0192
33.7700 5911.5596
33.7800 6121.8710
33.7900 5851.8794
33.8000 5686.4614
33.8100 5176.1592
33.8200 5226.7518
33.8300 5442.3930
33.8400 5861.6796
33.8500 5735.5734
33.8600 5243.2480
33.8700 5628.0544
33.8800 5541.5196
33.8900 5266.1778
33.9000 6106.5852
33.9100 5112.0926
33.9200 5503.9820
33.9300 5403.1636
33.9400 5661.7548
33.9500 5206.9544
33.9600 5978.4098
33.9700 5823.6156
33.9800 5804.2974
33.9900 6241.5318
34.0000 5833.7890
34.0100 6132.4646
34.0200 5293.5114
34.0300 5806.9672
34.0400 5846.8480
34.0500 5854.8024
34.0600 5596.0536
34.0700 5937.8464
34.0800 6067.3492
34.0900 6209.4000
34.1000 5726.7100
34.1100 6162.3520
34.1200 6095.8338
34.1300 6694.3004
34.1400 6576.6520
34.1500 7069.2434
34.1600 6416.5710
34.1700 7111.6944
34.1800 7507.6868
34.1900 7668.1142
34.2000 8546.1252
34.2100 9006.5054
34.2200 8597.2860
34.2300 9120.1010
34.2400 9287.8072
34.2500 9844.2230
34.2600 10759.6364
34.2700 10576.1282
34.2800 11017.9556
34.2900 12123.9808
34.3000 11194.8160
34.3100 12464.0940
34.3200 14083.9956
34.3300 15330.8554
34.3400 14642.4714
34.3500 14913.8744
34.3600 14879.5104
34.3700 15774.2046
34.3800 15584.9600
34.3900 15667.6382
34.4000 15749.2432
34.4100 15395.1712
34.4200 15963.7462
34.4300 15913.1806
34.4400 14295.6076
34.4500 15647.3450
34.4600 15332.6508
34.4700 13988.2944
34.4800 13348.2514
34.4900 13318.5068
34.5000 12262.7970
34.5100 12276.3082
34.5200 11253.1880
34.5300 10998.3520
34.5400 10384.2244
34.5500 9772.2128
34.5600 8796.9624
34.5700 9296.5352
34.5800 8053.2344
34.5900 8323.1222
34.6000 7686.1186
34.6100 7697.8196
34.6200 7363.3108
34.6300 7356.8054
34.6400 6978.2450
34.6500 6274.6710
34.6600 5926.1612
34.6700 6558.2968
34.6800 6899.6898
34.6900 6808.7444
34.7000 6016.7064
34.7100 6462.2792
34.7200 6073.5794
34.7300 5937.1684
34.7400 5519.4260
34.7500 6083.4616
34.7600 6320.4950
34.7700 6106.3146
34.7800 5874.8210
34.7900 5960.2092
34.8000 6265.3738
34.8100 6779.6774
34.8200 6583.9788
34.8300 6031.1386
34.8400 6499.7254
34.8500 6950.2004
34.8600 7242.7220
34.8700 7135.5534
34.8800 7231.3106
34.8900 7858.7774
34.9000 7827.5320
34.9100 7557.9142
34.9200 8237.9460
34.9300 8505.4454
34.9400 8649.6246
34.9500 8933.4350
34.9600 9851.5736
34.9700 9777.8484
34.9800 10271.1996
34.9900 11121.4548
35.0000 11097.5962
35.0100 12420.7082
35.0200 12072.7142
35.0300 12971.7886
35.0400 13533.9132
35.0500 14464.6596
35.0600 16030.9936
35.0700 17087.4328
35.0800 18222.8964
35.0900 20281.8644
35.1000 20530.2062
35.1100 22491.3330
35.1200 22833.9458
35.1300 24592.2750
35.1400 27252.0406
35.1500 28433.0302
35.1600 30018.7338
35.1700 31471.8404
35.1800 32199.4038
35.1900 33879.6102
35.2000 35089.4084
35.2100 34788.9120
35.2200 35012.5488
35.2300 35790.1612
35.2400 36850.2848
35.2500 35234.1106
35.2600 34133.7158
35.2700 33905.6620
35.2800 33344.9340
35.2900 33037.9842
35.3000 31881.2642
35.3100 30407.9874
35.3200 28016.5324
35.3300 24926.1494
35.3400 24424.3510
35.3500 23084.2122
35.3600 21294.7632
35.3700 19422.6420
35.3800 18361.6088
35.3900 17062.5356
35.4000 16043.9758
35.4100 14149.1018
35.4200 13516.5944
35.4300 12510.9304
35.4400 11687.5406
35.4500 11101.0406
35.4600 10618.6310
35.4700 9451.0000
35.4800 8777.5666
35.4900 8521.2142
35.5000 7661.4874
35.5100 7893.1550
35.5200 7936.9410
35.5300 7941.2390
35.5400 7465.2710
35.5500 6905.0328
35.5600 6629.0574
35.5700 7224.2768
35.5800 6457.5918
35.5900 7127.5588
35.6000 6477.6846
35.6100 6340.2160
35.6200 6769.7306
35.6300 6266.2980
35.6400 6316.2048
35.6500 6011.8958
35.6600 5912.4750
35.6700 6501.3534
35.6800 6360.4314
35.6900 5979.2054
35.7000 6064.2116
35.7100 5808.2250
35.7200 6136.4476
35.7300 5543.3564
35.7400 6237.5092
35.7500 6219.0918
35.7600 5652.4948
35.7700 5576.4058
35.7800 5836.3740
35.7900 5732.9762
35.8000 6545.3014
35.8100 6020.1970
35.8200 6436.9298
35.8300 6016.7058
35.8400 6241.7588
35.8500 6213.4272
35.8600 6706.7928
35.8700 6562.1164
35.8800 6843.9276
35.8900 6914.4074
35.9000 6463.6072
35.9100 7394.7032
35.9200 7503.8676
35.9300 7343.0380
35.9400 7801.0122
35.9500 7806.3908
35.9600 7871.4558
35.9700 7794.8650
35.9800 8295.4336
35.9900 8337.7060
36.0000 8720.2698
36.0100 8876.9796
36.0200 9282.6690
36.0300 8908.9426
36.0400 8375.5630
36.0500 9242.0594
36.0600 8858.7464
36.0700 8465.6500
36.0800 8390.4418
36.0900 8253.5294
36.1000 9115.7614
36.1100 8408.6716
36.1200 7824.7152
36.1300 8433.1752
36.1400 7761.7630
36.1500 7899.5930
36.1600 7507.2972
36.1700 6641.8890
36.1800 7271.2108
36.1900 6527.8386
36.2000 6760.5504
36.2100 6764.0314
36.2200 6064.2166
36.2300 6662.2202
36.2400 5957.2134
36.2500 6318.2718
36.2600 5809.4126
36.2700 6209.9254
36.2800 5442.7872
36.2900 6073.8896
36.3000 5800.7314
36.3100 6341.1488
36.3200 6122.4472
36.3300 5691.7780
36.3400 5300.1496
36.3500 5689.1260
36.3600 4974.6002
36.3700 5128.4272
36.3800 5636.7370
36.3900 5583.1904
36.4000 5599.6410
36.4100 5895.3710
36.4200 5828.4684
36.4300 6214.0772
36.4400 5637.5524
36.4500 6072.0830
36.4600 6318.4662
36.4700 6307.2362
36.4800 5942.6336
36.4900 6357.8364
36.5000 6143.4678
36.5100 6272.5744
36.5200 6318.9204
36.5300 6363.5234
36.5400 7138.7574
36.5500 7673.8286
36.5600 7111.5600
36.5700 7800.8556
36.5800 8877.6622
36.5900 8619.1020
36.6000 8566.3158
36.6100 8392.3930
36.6200 8924.0600
36.6300 9711.5682
36.6400 10513.6556
36.6500 11550.9002
36.6600 11922.3186
36.6700 12131.8084
36.6800 12902.7364
36.6900 14258.7188
36.7000 15167.0502
36.7100 16292.2932
36.7200 16533.8968
36.7300 18477.6978
36.7400 19352.5574
36.7500 20673.7610
36.7600 21205.1616
36.7700 21399.8902
36.7800 23918.5730
36.7900 24760.8784
36.8000 25397.1680
36.8100 25083.6528
36.8200 25227.7324
36.8300 25579.7770
36.8400 26023.4374
36.8500 26272.4508
36.8600 26273.6532
36.8700 26543.8782
36.8800 25344.3562
36.8900 24086.5276
36.9000 24078.7760
36.9100 22693.9982
36.9200 21677.7038
36.9300 20882.6232
36.9400 18718.8782
36.9500 18578.6906
36.9600 17193.3004
36.9700 16727.1108
36.9800 16062.5418
36.9900 14548.3836
37.0000 13118.9798
37.0100 11896.8668
37.0200 11274.0876
37.0300 11378.7180
37.0400 10079.6966
37.0500 9887.4694
37.0600 9122.9004
37.0700 8843.9046
37.0800 8344.0266
37.0900 7794.1666
37.1000 7525.8454
37.1100 7634.5770
37.1200 6948.6216
37.1300 6721.9884
37.1400 6535.7468
37.1500 6249.0422
37.1600 6368.0410
37.1700 6208.1090
37.1800 5769.2800
37.1900 6111.9324
37.2000 5922.9956
37.2100 6093.5134
37.2200 5882.8034
37.2300 6004.7042
37.2400 6351.8428
37.2500 5690.4480
37.2600 5433.9680
37.2700 5634.5972
37.2800 5437.6058
37.2900 5553.0076
37.3000 5699.8972
37.3100 6058.6964
37.3200 6415.4556
37.3300 6161.1658
37.3400 6296.6838
37.3500 6247.7356
37.3600 6639.2884
37.3700 6913.2664
37.3800 6698.8138
37.3900 7140.1052
37.4000 7686.1806
37.4100 7582.1772
37.4200 8278.1286
37.4300 8904.6998
37.4400 8812.0646
37.4500 8705.7230
37.4600 9926.3610
37.4700 10365.1958
37.4800 10992.1306
37.4900 10780.6000
37.5000 11545.5536
37.5100 12225.1048
37.5200 13112.0870
37.5300 13299.0478
37.5400 14050.9602
37.5500 14821.7814
37.5600 14369.8120
37.5700 15066.1020
37.5800 15882.0994
37.5900 16233.0332
37.6000 16139.1774
37.6100 17339.5426
37.6200 17683.5104
37.6300 17090.3788
37.6400 16735.7544
37.6500 16078.4952
37.6600 16597.7874
37.6700 16155.5888
37.6800 15905.3680
37.6900 15046.8394
37.7000 14711.8876
37.7100 13731.9600
37.7200 13545.8598
37.7300 12422.3022
37.7400 11821.4264
37.7500 11520.9818
37.7600 11207.3608
37.7700 11661.3516
37.7800 9549.6806
37.7900 9364.7400
37.8000 8167.0338
37.8100 8267.1982
37.8200 7644.8182
37.8300 7937.1510
37.8400 7050.1028
37.8500 6881.8212
37.8600 6471.7230
37.8700 6536.0108
37.8800 6012.2742
37.8900 5772.7468
37.9000 6396.9446
37.9100 5512.9588
37.9200 5290.6444
37.9300 5525.0050
37.9400 5275.8184
37.9500 5432.6584
37.9600 5215.9688
37.9700 5023.2000
37.9800 5007.7800
37.9900 4631.7358
38.0000 5244.1178
38.0100 5054.1666
38.0200 4708.9014
38.0300 4867.1382
38.0400 4777.6906
38.0500 5184.6522
38.0600 4950.4740
38.0700 4867.3904
38.0800 4825.1744
38.0900 4697.9604
38.1000 4882.4956
38.1100 4829.9078
38.1200 5273.6236
38.1300 4867.4708
38.1400 5364.9286
38.1500 5001.3398
38.1600 5314.1876
38.1700 5085.5652
38.1800 5448.9090
38.1900 5188.1760
38.2000 4918.8730
38.2100 5348.8556
38.2200 5075.9522
38.2300 5358.6136
38.2400 5564.3494
38.2500 5643.4276
38.2600 5510.0230
38.2700 5440.3234
38.2800 5519.5344
38.2900 5534.3710
38.3000 5723.3170
38.3100 6091.4560
38.3200 6615.4018
38.3300 6194.0506
38.3400 6654.1824
38.3500 6764.3194
38.3600 6967.8116
38.3700 6442.0562
38.3800 6202.3682
38.3900 6264.1048
38.4000 6118.3400
38.4100 6541.7852
38.4200 6442.3426
38.4300 6475.9750
38.4400 6199.6094
38.4500 6651.3422
38.4600 6025.8932
38.4700 6534.3734
38.4800 5740.0122
38.4900 5117.0650
38.5000 5603.7664
38.5100 5299.0026
38.5200 5250.6374
38.5300 5555.4524
38.5400 5164.4618
38.5500 5239.8468
38.5600 4778.1422
38.5700 4731.1732
38.5800 5238.6470
38.5900 5060.9486
38.6000 4841.4230
38.6100 4797.7468
38.6200 4786.5152
38.6300 4973.1948
38.6400 4267.1896
38.6500 4557.2480
38.6600 4583.2896
38.6700 4796.4936
38.6800 4906.7658
38.6900 4378.9978
38.7000 4331.5282
38.7100 4548.8850
38.7200 4773.9756
38.7300 4680.9866
38.7400 5074.9842
38.7500 4814.3366
38.7600 5523.3328
38.7700 5466.8956
38.7800 5339.5792
38.7900 5368.7896
38.8000 5075.0900
38.8100 5466.8778
38.8200 5011.9426
38.8300 5120.7356
38.8400 5487.6032
38.8500 5601.7360
38.8600 5996.0332
38.8700 5975.4766
38.8800 6108.9178
38.8900 5636.1968
38.9000 6449.4106
38.9100 5950.9786
38.9200 6807.5790
38.9300 6937.2604
38.9400 6846.3358
38.9500 6927.1332
38.9600 7538.3738
38.9700 8450.2518
38.9800 7852.0580
38.9900 9274.7212
39.0000 9074.4182
39.0100 9693.5232
39.0200 10999.2402
39.0300 11186.4624
39.0400 11548.1038
39.0500 12506.6548
39.0600 11767.0126
39.0700 12788.2008
39.0800 13395.7194
39.0900 13979.2480
39.1000 13832.2124
39.1100 14122.4456
39.1200 14678.8758
39.1300 14456.7240
39.1400 15242.9768
39.1500 15390.9332
39.1600 15508.8012
39.1700 15548.4040
39.1800 14135.3190
39.1900 14041.6392
39.2000 14587.0564
39.2100 13641.7592
39.2200 13331.6426
39.2300 12227.3050
39.2400 12120.2678
39.2500 11383.4198
39.2600 11070.0186
39.2700 10460.5702
39.2800 10316.2802
39.2900 9099.0204
39.3000 9362.1226
39.3100 9041.1946
39.3200 8073.7020
39.3300 7457.7780
39.3400 7200.1408
39.3500 6884.4314
39.3600 6649.5016
39.3700 6387.3124
39.3800 6452.3732
39.3900 6604.1296
39.4000 5451.3718
39.4100 5271.1950
39.4200 4994.1970
39.4300 5192.3670
39.4400 4955.8746
39.4500 4909.9182
39.4600 4219.1912
39.4700 4505.9810
39.4800 4862.0148
39.4900 5030.1880
39.5000 4823.3892
39.5100 4577.8930
39.5200 4659.8252
39.5300 4596.7366
39.5400 4742.2328
39.5500 4672.7620
39.5600 4437.2930
39.5700 4545.1498
39.5800 4863.2004
39.5900 5133.3328
39.6000 4762.1466
39.6100 4476.5290
39.6200 5044.9478
39.6300 5310.3094
39.6400 4902.5090
39.6500 5148.3658
39.6600 5052.0630
39.6700 5488.0224
39.6800 5969.6900
39.6900 6304.2140
39.7000 6139.3320
39.7100 5911.8276
39.7200 5808.3546
39.7300 6322.3866
39.7400 7109.4248
39.7500 7253.0406
39.7600 6585.4340
39.7700 7005.3376
39.7800 8057.7158
39.7900 8050.5412
39.8000 8538.6464
39.8100 8630.6428
39.8200 9056.2490
39.8300 9879.0192
39.8400 9078.0040
39.8500 10039.9038
39.8600 10382.8064
39.8700 9790.4052
39.8800 9633.7566
39.8900 10686.8570
39.9000 9463.5894
39.9100 9612.8856
39.9200 9484.8196
39.9300 9207.3252
39.9400 8872.3602
39.9500 9111.4420
39.9600 9018.3746
39.9700 8461.3048
39.9800 8329.0502
39.9900 8064.8006
40.0000 7168.5546
