*FILE_COMMENT ""
*FILE_MD5 ""
*FILE_MEMO ""
*FILE_OPERATOR "ysh"
*FILE_PACKAGE_NAME ""
*FILE_PART_ID "GeneralMeasurement(BB)"
*FILE_SAMPLE ""
*FILE_SYSTEM_NAME "SmartLab"
*FILE_TYPE "RAS_RAW"
*FILE_USERGROUP "Operator1"
*FILE_VERSION "1"
*HW_ATTACHMENT_ID "ATT0025"
*HW_ATTACHMENT_NAME "Standard"
*HW_ATTACHMENT_NAME_INTERNAL "Standard"
*HW_COUNTER_ID-0 "CUT0054"
*HW_COUNTER_ID-2 "CMC0020"
*HW_COUNTER_MONOCHRO_ID "CMC0020"
*HW_COUNTER_MONOCHRO_NAME "None"
*HW_COUNTER_MONOCHRO_NAME_INTERNAL "None"
*HW_COUNTER_NAME_INTERNAL "HyPix400(V)"
*HW_COUNTER_NAME-0 "HyPix400(V)"
*HW_COUNTER_NAME-1 "None"
*HW_COUNTER_NAME-2 "None"
*HW_COUNTER_PIXEL_SIZE "0.1"
*HW_COUNTER_SELECT_NAME "HyPix400(V)"
*HW_EXTERNAL_CONTROLLER_NAME "None"
*HW_EXTERNAL_CONTROLLER_NAME_INTERNAL "None"
*HW_GONIOMETER_ID "GON0021"
*HW_GONIOMETER_NAME "Standard"
*HW_GONIOMETER_NAME_INTERNAL "Standard"
*HW_GONIOMETER_RADIUS-0 "90.0"
*HW_GONIOMETER_RADIUS-1 "114.0"
*HW_GONIOMETER_RADIUS-2 "190.0"
*HW_GONIOMETER_RADIUS-3 "300.0"
*HW_GONIOMETER_RADIUS-4 "187.0"
*HW_GONIOMETER_RADIUS-5 "300.0"
*HW_GONIOMETER_RADIUS-6 "113.0"
*HW_GONIOMETER_RADIUS-7 "331.0"
*HW_I_CBO_ID "CBO0023"
*HW_I_CBO_NAME "Open-BB"
*HW_I_CBO_NAME_INTERNAL "Open-BB"
*HW_I_MONOCHRO_ID "ISO0021"
*HW_I_MONOCHRO_NAME "IPS_adaptor"
*HW_I_MONOCHRO_NAME_INTERNAL "IPS_adaptor"
*HW_I_OPT_ID-1 "CBO0023"
*HW_I_OPT_ID-2 "ISL0021"
*HW_I_PRIMARY_NAME_INTERNAL "Manual"
*HW_I_SLIT_ID "ISL0021"
*HW_I_SLIT_NAME "Auto"
*HW_I_SLIT_NAME_INTERNAL "Auto"
*HW_R_ATTENUATER_AUTOMODE "0"
*HW_R_ATTENUATER_ID "ATN0020"
*HW_R_ATTENUATER_NAME "No_unit"
*HW_R_ATTENUATOR_NAME_INTERNAL "No_unit"
*HW_R_OPT_ID-1 "RCR0022"
*HW_R_OPT_ID-2 "RSO0021"
*HW_R_OPT_ID-3 "RRS0022"
*HW_R_OPT_ID-4 "ATN0020"
*HW_R_ROD_ID "RCR0022"
*HW_R_ROD_NAME "ROD_adaptor"
*HW_R_ROD_NAME_INTERNAL "ROD_adaptor"
*HW_R_RPS_ID "RSO0021"
*HW_R_RPS_NAME "RPS_adaptor"
*HW_R_RPS_NAME_INTERNAL "RPS_adaptor"
*HW_R_RS_ID "RRS0022"
*HW_R_RS_NAME "Virtual"
*HW_R_RS_NAME_INTERNAL "Virtual"
*HW_R_SS_NAME_INTERNAL "FilterBoxForHyPix"
*HW_ROBOT_NAME "No_unit"
*HW_ROBOT_NAME_INTERNAL "No_unit"
*HW_SAMPLE_CAMERA_NAME "None"
*HW_SAMPLE_CAMERA_NAME_INTERNAL "None"
*HW_SAMPLE_HOLDER_NAME_INTERNAL "Z_Standard"
*HW_SAMPLE_NAME "PowderSample"
*HW_SAMPLE_NAME_INTERNAL "PowderSample"
*HW_SAMPLE_PLATE_NAME "None"
*HW_SAMPLE_PLATE_NAME_INTERNAL "None"
*HW_SAMPLE_SPACER_NAME "None"
*HW_SAMPLE_SPACER_NAME_INTERNAL "None"
*HW_USERINFO_CATALOG_NO ""
*HW_USERINFO_INSTRUMENT_ID ""
*HW_USERINFO_INSTRUMENT_NAME ""
*HW_USERINFO_INSTRUMENT_NO ""
*HW_USERINFO_MODEL ""
*HW_USERINFO_ORDER_NO ""
*HW_USERINFO_SERIAL_NO ""
*HW_USERINFO_VERIFY_INSTRUMENT_ID "00-07-fe-01-2d-7e"
*HW_VER_RCD_COUNTER_UNIT "N/A"
*HW_VER_RCD_CPU "3.4.0"
*HW_VER_RCD_FPGA "1.2.3"
*HW_VER_RCD_GONIO_UNIT "7.0.0"
*HW_VER_RCD_INCIDENT_UNIT "7.0.0"
*HW_VER_RCD_RECEIVING_UNIT "7.0.0"
*HW_VER_RCD_TYPE "RINC"
*HW_VER_XGC_CPU "3.4.0"
*HW_VER_XGC_CW "4.0.0"
*HW_VER_XGC_HV "4.0.0"
*HW_VER_XGC_RS1 "4.0.0"
*HW_VER_XGC_RS2 "N/A"
*HW_VER_XGC_RT "N/A"
*HW_VER_XGC_TYPE "RINC"
*HW_XG_CURRENT_UNIT "mA"
*HW_XG_FOCUS "0.4mm x 12mm"
*HW_XG_FOCUS_TYPE "LongFineToshiba"
*HW_XG_TARGET_ATOMIC_NUMBER "29"
*HW_XG_TARGET_NAME "Cu"
*HW_XG_TYPE "Hermetic"
*HW_XG_VOLTAGE_UNIT "kV"
*HW_XG_WAVE_LENGTH_ALPHA1 "1.540593"
*HW_XG_WAVE_LENGTH_ALPHA2 "1.544414"
*HW_XG_WAVE_LENGTH_BETA "1.392246"
*HW_XG_WAVE_LENGTH_UNIT "Angstrom"
*MEAS_COND_AXIS_NAME_INTERNAL-0 "ThetaS"
*MEAS_COND_AXIS_NAME_INTERNAL-1 "ThetaD"
*MEAS_COND_AXIS_NAME_INTERNAL-10 "IncidentSlitBox"
*MEAS_COND_AXIS_NAME_INTERNAL-11 "IncidentSlitBox"
*MEAS_COND_AXIS_NAME_INTERNAL-12 "IncidentSlitBox"
*MEAS_COND_AXIS_NAME_INTERNAL-13 "Zs"
*MEAS_COND_AXIS_NAME_INTERNAL-14 "IncidentAxdSlit"
*MEAS_COND_AXIS_NAME_INTERNAL-15 "IncidentAxdSlit"
*MEAS_COND_AXIS_NAME_INTERNAL-16 "IncidentAxdSlit"
*MEAS_COND_AXIS_NAME_INTERNAL-17 "Z"
*MEAS_COND_AXIS_NAME_INTERNAL-18 "DirectBeamStop"
*MEAS_COND_AXIS_NAME_INTERNAL-19 "KnifeEdge"
*MEAS_COND_AXIS_NAME_INTERNAL-2 "TwoTheta"
*MEAS_COND_AXIS_NAME_INTERNAL-20 "Filter"
*MEAS_COND_AXIS_NAME_INTERNAL-21 "PSA"
*MEAS_COND_AXIS_NAME_INTERNAL-22 "ReceivingSollerSlit"
*MEAS_COND_AXIS_NAME_INTERNAL-23 "ReceivingSlitBox2"
*MEAS_COND_AXIS_NAME_INTERNAL-24 "ReceivingSlitBox2"
*MEAS_COND_AXIS_NAME_INTERNAL-25 "ReceivingSlitBox2"
*MEAS_COND_AXIS_NAME_INTERNAL-26 "ModuleSensorType"
*MEAS_COND_AXIS_NAME_INTERNAL-27 "GainMode"
*MEAS_COND_AXIS_NAME_INTERNAL-28 "PHA"
*MEAS_COND_AXIS_NAME_INTERNAL-29 "DetectorBeamStop"
*MEAS_COND_AXIS_NAME_INTERNAL-3 "Omega"
*MEAS_COND_AXIS_NAME_INTERNAL-30 "DetectorFilter"
*MEAS_COND_AXIS_NAME_INTERNAL-31 "DedicatedHolder"
*MEAS_COND_AXIS_NAME_INTERNAL-32 "Target_TargetTime"
*MEAS_COND_AXIS_NAME_INTERNAL-33 "Target_XrayOnTime"
*MEAS_COND_AXIS_NAME_INTERNAL-34 "Target_TMPTime"
*MEAS_COND_AXIS_NAME_INTERNAL-35 "Target_RPTime"
*MEAS_COND_AXIS_NAME_INTERNAL-36 "Target_FilamentTime"
*MEAS_COND_AXIS_NAME_INTERNAL-37 "Target_IG"
*MEAS_COND_AXIS_NAME_INTERNAL-38 "Target_GP"
*MEAS_COND_AXIS_NAME_INTERNAL-39 "Target_FC"
*MEAS_COND_AXIS_NAME_INTERNAL-4 "TwoThetaTheta"
*MEAS_COND_AXIS_NAME_INTERNAL-40 "HVPS_Bias"
*MEAS_COND_AXIS_NAME_INTERNAL-41 "HVPS_HVPSTime"
*MEAS_COND_AXIS_NAME_INTERNAL-42 "HVPS_Type1Time"
*MEAS_COND_AXIS_NAME_INTERNAL-43 "HVPS_Type2Time"
*MEAS_COND_AXIS_NAME_INTERNAL-44 "HVPS_Type3Time"
*MEAS_COND_AXIS_NAME_INTERNAL-45 "CW_IERTime"
*MEAS_COND_AXIS_NAME_INTERNAL-46 "CW_ECTime"
*MEAS_COND_AXIS_NAME_INTERNAL-47 "CW_Flow1"
*MEAS_COND_AXIS_NAME_INTERNAL-48 "CW_Temperature1"
*MEAS_COND_AXIS_NAME_INTERNAL-49 "CW_Pressure1"
*MEAS_COND_AXIS_NAME_INTERNAL-5 "TwoThetaOmega"
*MEAS_COND_AXIS_NAME_INTERNAL-50 "CW_PressureIn"
*MEAS_COND_AXIS_NAME_INTERNAL-51 "CW_PressureOut"
*MEAS_COND_AXIS_NAME_INTERNAL-52 "CW_Flow2"
*MEAS_COND_AXIS_NAME_INTERNAL-53 "CW_Temperature2"
*MEAS_COND_AXIS_NAME_INTERNAL-54 "CW_Pressure2"
*MEAS_COND_AXIS_NAME_INTERNAL-55 "RE_EnclosureTemp"
*MEAS_COND_AXIS_NAME_INTERNAL-56 "RE_EnclosureHummidity"
*MEAS_COND_AXIS_NAME_INTERNAL-57 "RE_CabinetTemp"
*MEAS_COND_AXIS_NAME_INTERNAL-58 "RE_RPTemp"
*MEAS_COND_AXIS_NAME_INTERNAL-59 "RE_ShutterAXrayOnTime"
*MEAS_COND_AXIS_NAME_INTERNAL-6 "OmegaTwoTheta"
*MEAS_COND_AXIS_NAME_INTERNAL-60 "RE_ShutterATimes"
*MEAS_COND_AXIS_NAME_INTERNAL-61 "RE_ShutterAOpenCloseTime"
*MEAS_COND_AXIS_NAME_INTERNAL-62 "RE_ShutterACloseOpenTime"
*MEAS_COND_AXIS_NAME_INTERNAL-63 "RE_ShutterBXrayOnTime"
*MEAS_COND_AXIS_NAME_INTERNAL-64 "RE_ShutterBTimes"
*MEAS_COND_AXIS_NAME_INTERNAL-65 "RE_ShutterBOpenCloseTime"
*MEAS_COND_AXIS_NAME_INTERNAL-66 "RE_ShutterBCloseOpenTime"
*MEAS_COND_AXIS_NAME_INTERNAL-67 "RE_XrayWarningRamp"
*MEAS_COND_AXIS_NAME_INTERNAL-68 "RE_ShutterAInstallation"
*MEAS_COND_AXIS_NAME_INTERNAL-69 "RE_ShutterARamp"
*MEAS_COND_AXIS_NAME_INTERNAL-7 "GonioDirectBeamStop"
*MEAS_COND_AXIS_NAME_INTERNAL-70 "RE_ShutterBInstallation"
*MEAS_COND_AXIS_NAME_INTERNAL-71 "RE_ShutterBRamp"
*MEAS_COND_AXIS_NAME_INTERNAL-72 "RE_ExtShutterCLS"
*MEAS_COND_AXIS_NAME_INTERNAL-73 "RE_ExtXrayOFF"
*MEAS_COND_AXIS_NAME_INTERNAL-74 "RE_ExtSafetyCircuit"
*MEAS_COND_AXIS_NAME_INTERNAL-75 "Version_CPU"
*MEAS_COND_AXIS_NAME_INTERNAL-76 "Version_RS1"
*MEAS_COND_AXIS_NAME_INTERNAL-77 "Version_RS2"
*MEAS_COND_AXIS_NAME_INTERNAL-78 "Version_HV"
*MEAS_COND_AXIS_NAME_INTERNAL-79 "Version_CW"
*MEAS_COND_AXIS_NAME_INTERNAL-8 "CBOType"
*MEAS_COND_AXIS_NAME_INTERNAL-80 "Version_RT"
*MEAS_COND_AXIS_NAME_INTERNAL-81 "IncidentPrimary"
*MEAS_COND_AXIS_NAME_INTERNAL-82 "IncidentMonochromator"
*MEAS_COND_AXIS_NAME_INTERNAL-83 "ReceivingOptics"
*MEAS_COND_AXIS_NAME_INTERNAL-84 "CounterMonochromatorKind"
*MEAS_COND_AXIS_NAME_INTERNAL-9 "IncidentSollerSlit"
*MEAS_COND_AXIS_NAME-0 "ThetaS"
*MEAS_COND_AXIS_NAME-1 "ThetaD"
*MEAS_COND_AXIS_NAME-10 "IncidentSlitBox"
*MEAS_COND_AXIS_NAME-11 "IncidentSlitBox-_Axis"
*MEAS_COND_AXIS_NAME-12 "SlitDS"
*MEAS_COND_AXIS_NAME-13 "Zs"
*MEAS_COND_AXIS_NAME-14 "IncidentAxdSlit"
*MEAS_COND_AXIS_NAME-15 "LLS"
*MEAS_COND_AXIS_NAME-16 "DHLSlit"
*MEAS_COND_AXIS_NAME-17 "Z"
*MEAS_COND_AXIS_NAME-18 "DirectBeamStop"
*MEAS_COND_AXIS_NAME-19 "KnifeEdge"
*MEAS_COND_AXIS_NAME-2 "TwoTheta"
*MEAS_COND_AXIS_NAME-20 "Filter"
*MEAS_COND_AXIS_NAME-21 "PSA"
*MEAS_COND_AXIS_NAME-22 "ReceivingSollerSlit"
*MEAS_COND_AXIS_NAME-23 "ReceivingSlitBox2"
*MEAS_COND_AXIS_NAME-24 "ReceivingSlitBox2-_Axis"
*MEAS_COND_AXIS_NAME-25 "SlitRS"
*MEAS_COND_AXIS_NAME-26 "ModuleSensorType"
*MEAS_COND_AXIS_NAME-27 "GainMode"
*MEAS_COND_AXIS_NAME-28 "PHA"
*MEAS_COND_AXIS_NAME-29 "DetectorBeamStop"
*MEAS_COND_AXIS_NAME-3 "Omega"
*MEAS_COND_AXIS_NAME-30 "DetectorFilter"
*MEAS_COND_AXIS_NAME-31 "DedicatedHolder"
*MEAS_COND_AXIS_NAME-32 "Target_TargetTime"
*MEAS_COND_AXIS_NAME-33 "Target_XrayOnTime"
*MEAS_COND_AXIS_NAME-34 "Target_TMPTime"
*MEAS_COND_AXIS_NAME-35 "Target_RPTime"
*MEAS_COND_AXIS_NAME-36 "Target_FilamentTime"
*MEAS_COND_AXIS_NAME-37 "Target_IG"
*MEAS_COND_AXIS_NAME-38 "Target_GP"
*MEAS_COND_AXIS_NAME-39 "Target_FC"
*MEAS_COND_AXIS_NAME-4 "TwoThetaTheta"
*MEAS_COND_AXIS_NAME-40 "HVPS_Bias"
*MEAS_COND_AXIS_NAME-41 "HVPS_HVPSTime"
*MEAS_COND_AXIS_NAME-42 "HVPS_Type1Time"
*MEAS_COND_AXIS_NAME-43 "HVPS_Type2Time"
*MEAS_COND_AXIS_NAME-44 "HVPS_Type3Time"
*MEAS_COND_AXIS_NAME-45 "CW_IERTime"
*MEAS_COND_AXIS_NAME-46 "CW_ECTime"
*MEAS_COND_AXIS_NAME-47 "CW_Flow1"
*MEAS_COND_AXIS_NAME-48 "CW_Temperature1"
*MEAS_COND_AXIS_NAME-49 "CW_Pressure1"
*MEAS_COND_AXIS_NAME-5 "TwoThetaOmega"
*MEAS_COND_AXIS_NAME-50 "CW_PressureIn"
*MEAS_COND_AXIS_NAME-51 "CW_PressureOut"
*MEAS_COND_AXIS_NAME-52 "CW_Flow2"
*MEAS_COND_AXIS_NAME-53 "CW_Temperature2"
*MEAS_COND_AXIS_NAME-54 "CW_Pressure2"
*MEAS_COND_AXIS_NAME-55 "RE_EnclosureTemp"
*MEAS_COND_AXIS_NAME-56 "RE_EnclosureHummidity"
*MEAS_COND_AXIS_NAME-57 "RE_CabinetTemp"
*MEAS_COND_AXIS_NAME-58 "RE_RPTemp"
*MEAS_COND_AXIS_NAME-59 "RE_ShutterAXrayOnTime"
*MEAS_COND_AXIS_NAME-6 "OmegaTwoTheta"
*MEAS_COND_AXIS_NAME-60 "RE_ShutterATimes"
*MEAS_COND_AXIS_NAME-61 "RE_ShutterAOpenCloseTime"
*MEAS_COND_AXIS_NAME-62 "RE_ShutterACloseOpenTime"
*MEAS_COND_AXIS_NAME-63 "RE_ShutterBXrayOnTime"
*MEAS_COND_AXIS_NAME-64 "RE_ShutterBTimes"
*MEAS_COND_AXIS_NAME-65 "RE_ShutterBOpenCloseTime"
*MEAS_COND_AXIS_NAME-66 "RE_ShutterBCloseOpenTime"
*MEAS_COND_AXIS_NAME-67 "RE_XrayWarningRamp"
*MEAS_COND_AXIS_NAME-68 "RE_ShutterAInstallation"
*MEAS_COND_AXIS_NAME-69 "RE_ShutterARamp"
*MEAS_COND_AXIS_NAME-7 "GonioDirectBeamStop"
*MEAS_COND_AXIS_NAME-70 "RE_ShutterBInstallation"
*MEAS_COND_AXIS_NAME-71 "RE_ShutterBRamp"
*MEAS_COND_AXIS_NAME-72 "RE_ExtShutterCLS"
*MEAS_COND_AXIS_NAME-73 "RE_ExtXrayOFF"
*MEAS_COND_AXIS_NAME-74 "RE_ExtSafetyCircuit"
*MEAS_COND_AXIS_NAME-75 "Version_CPU"
*MEAS_COND_AXIS_NAME-76 "Version_RS1"
*MEAS_COND_AXIS_NAME-77 "Version_RS2"
*MEAS_COND_AXIS_NAME-78 "Version_HV"
*MEAS_COND_AXIS_NAME-79 "Version_CW"
*MEAS_COND_AXIS_NAME-8 "CBOType"
*MEAS_COND_AXIS_NAME-80 "Version_RT"
*MEAS_COND_AXIS_NAME-81 "IncidentPrimary"
*MEAS_COND_AXIS_NAME-82 "IncidentMonochromator"
*MEAS_COND_AXIS_NAME-83 "ReceivingOptics"
*MEAS_COND_AXIS_NAME-84 "CounterMonochromatorKind"
*MEAS_COND_AXIS_NAME-9 "IncidentSollerSlit"
*MEAS_COND_AXIS_OFFSET-0 "0"
*MEAS_COND_AXIS_OFFSET-1 "0"
*MEAS_COND_AXIS_OFFSET-10 "0"
*MEAS_COND_AXIS_OFFSET-11 "0"
*MEAS_COND_AXIS_OFFSET-12 "0"
*MEAS_COND_AXIS_OFFSET-13 "0"
*MEAS_COND_AXIS_OFFSET-14 "0"
*MEAS_COND_AXIS_OFFSET-15 "0"
*MEAS_COND_AXIS_OFFSET-16 "0"
*MEAS_COND_AXIS_OFFSET-17 "0"
*MEAS_COND_AXIS_OFFSET-18 "0"
*MEAS_COND_AXIS_OFFSET-19 "0"
*MEAS_COND_AXIS_OFFSET-2 "0"
*MEAS_COND_AXIS_OFFSET-20 "0"
*MEAS_COND_AXIS_OFFSET-21 "0"
*MEAS_COND_AXIS_OFFSET-22 "0"
*MEAS_COND_AXIS_OFFSET-23 "0"
*MEAS_COND_AXIS_OFFSET-24 "0"
*MEAS_COND_AXIS_OFFSET-25 "0"
*MEAS_COND_AXIS_OFFSET-26 "0"
*MEAS_COND_AXIS_OFFSET-27 "0"
*MEAS_COND_AXIS_OFFSET-28 "0"
*MEAS_COND_AXIS_OFFSET-29 "0"
*MEAS_COND_AXIS_OFFSET-3 "0"
*MEAS_COND_AXIS_OFFSET-30 "0"
*MEAS_COND_AXIS_OFFSET-31 "0"
*MEAS_COND_AXIS_OFFSET-32 "0"
*MEAS_COND_AXIS_OFFSET-33 "0"
*MEAS_COND_AXIS_OFFSET-34 "0"
*MEAS_COND_AXIS_OFFSET-35 "0"
*MEAS_COND_AXIS_OFFSET-36 "0"
*MEAS_COND_AXIS_OFFSET-37 "0"
*MEAS_COND_AXIS_OFFSET-38 "0"
*MEAS_COND_AXIS_OFFSET-39 "0"
*MEAS_COND_AXIS_OFFSET-4 "0"
*MEAS_COND_AXIS_OFFSET-40 "0"
*MEAS_COND_AXIS_OFFSET-41 "0"
*MEAS_COND_AXIS_OFFSET-42 "0"
*MEAS_COND_AXIS_OFFSET-43 "0"
*MEAS_COND_AXIS_OFFSET-44 "0"
*MEAS_COND_AXIS_OFFSET-45 "0"
*MEAS_COND_AXIS_OFFSET-46 "0"
*MEAS_COND_AXIS_OFFSET-47 "0"
*MEAS_COND_AXIS_OFFSET-48 "0"
*MEAS_COND_AXIS_OFFSET-49 "0"
*MEAS_COND_AXIS_OFFSET-5 "0"
*MEAS_COND_AXIS_OFFSET-50 "0"
*MEAS_COND_AXIS_OFFSET-51 "0"
*MEAS_COND_AXIS_OFFSET-52 "0"
*MEAS_COND_AXIS_OFFSET-53 "0"
*MEAS_COND_AXIS_OFFSET-54 "0"
*MEAS_COND_AXIS_OFFSET-55 "0"
*MEAS_COND_AXIS_OFFSET-56 "0"
*MEAS_COND_AXIS_OFFSET-57 "0"
*MEAS_COND_AXIS_OFFSET-58 "0"
*MEAS_COND_AXIS_OFFSET-59 "0"
*MEAS_COND_AXIS_OFFSET-6 "0"
*MEAS_COND_AXIS_OFFSET-60 "0"
*MEAS_COND_AXIS_OFFSET-61 "0"
*MEAS_COND_AXIS_OFFSET-62 "0"
*MEAS_COND_AXIS_OFFSET-63 "0"
*MEAS_COND_AXIS_OFFSET-64 "0"
*MEAS_COND_AXIS_OFFSET-65 "0"
*MEAS_COND_AXIS_OFFSET-66 "0"
*MEAS_COND_AXIS_OFFSET-67 "0"
*MEAS_COND_AXIS_OFFSET-68 "0"
*MEAS_COND_AXIS_OFFSET-69 "0"
*MEAS_COND_AXIS_OFFSET-7 "0"
*MEAS_COND_AXIS_OFFSET-70 "0"
*MEAS_COND_AXIS_OFFSET-71 "0"
*MEAS_COND_AXIS_OFFSET-72 "0"
*MEAS_COND_AXIS_OFFSET-73 "0"
*MEAS_COND_AXIS_OFFSET-74 "0"
*MEAS_COND_AXIS_OFFSET-75 "0"
*MEAS_COND_AXIS_OFFSET-76 "0"
*MEAS_COND_AXIS_OFFSET-77 "0"
*MEAS_COND_AXIS_OFFSET-78 "0"
*MEAS_COND_AXIS_OFFSET-79 "0"
*MEAS_COND_AXIS_OFFSET-8 "0"
*MEAS_COND_AXIS_OFFSET-80 "0"
*MEAS_COND_AXIS_OFFSET-81 "0"
*MEAS_COND_AXIS_OFFSET-82 "0"
*MEAS_COND_AXIS_OFFSET-83 "0"
*MEAS_COND_AXIS_OFFSET-84 "0"
*MEAS_COND_AXIS_OFFSET-9 "0"
*MEAS_COND_AXIS_POSITION-0 "0.0000"
*MEAS_COND_AXIS_POSITION-1 "0.0000"
*MEAS_COND_AXIS_POSITION-10 "1/3deg"
*MEAS_COND_AXIS_POSITION-11 "1.105625"
*MEAS_COND_AXIS_POSITION-12 "1/3deg"
*MEAS_COND_AXIS_POSITION-13 "0.0000000"
*MEAS_COND_AXIS_POSITION-14 "10mm"
*MEAS_COND_AXIS_POSITION-15 "10mm"
*MEAS_COND_AXIS_POSITION-16 "10mm"
*MEAS_COND_AXIS_POSITION-17 "0.00000"
*MEAS_COND_AXIS_POSITION-18 "None"
*MEAS_COND_AXIS_POSITION-19 "None"
*MEAS_COND_AXIS_POSITION-2 "0.0000"
*MEAS_COND_AXIS_POSITION-20 "Cu_K-beta_1D"
*MEAS_COND_AXIS_POSITION-21 "PSA_open"
*MEAS_COND_AXIS_POSITION-22 "None"
*MEAS_COND_AXIS_POSITION-23 "20.100mm"
*MEAS_COND_AXIS_POSITION-24 "20.1"
*MEAS_COND_AXIS_POSITION-25 "20.100mm"
*MEAS_COND_AXIS_POSITION-26 "AC"
*MEAS_COND_AXIS_POSITION-27 "Mo-HiC"
*MEAS_COND_AXIS_POSITION-29 "None"
*MEAS_COND_AXIS_POSITION-3 "0.0000"
*MEAS_COND_AXIS_POSITION-30 "None"
*MEAS_COND_AXIS_POSITION-31 "None"
*MEAS_COND_AXIS_POSITION-4 "0.0000"
*MEAS_COND_AXIS_POSITION-5 "0.0000"
*MEAS_COND_AXIS_POSITION-6 "0.0000"
*MEAS_COND_AXIS_POSITION-7 "None"
*MEAS_COND_AXIS_POSITION-8 "Type1"
*MEAS_COND_AXIS_POSITION-81 "Manual"
*MEAS_COND_AXIS_POSITION-82 "IPS_adaptor"
*MEAS_COND_AXIS_POSITION-83 "PSA_open"
*MEAS_COND_AXIS_POSITION-84 "None"
*MEAS_COND_AXIS_POSITION-9 "Soller_slit_open"
*MEAS_COND_AXIS_RESOLUTION-0 "0.0001"
*MEAS_COND_AXIS_RESOLUTION-1 "0.0001"
*MEAS_COND_AXIS_RESOLUTION-10 "1/1600"
*MEAS_COND_AXIS_RESOLUTION-11 "1/1600"
*MEAS_COND_AXIS_RESOLUTION-12 "1/1600"
*MEAS_COND_AXIS_RESOLUTION-13 "0.0003125"
*MEAS_COND_AXIS_RESOLUTION-14 ""
*MEAS_COND_AXIS_RESOLUTION-15 ""
*MEAS_COND_AXIS_RESOLUTION-16 ""
*MEAS_COND_AXIS_RESOLUTION-17 "0.00002"
*MEAS_COND_AXIS_RESOLUTION-18 ""
*MEAS_COND_AXIS_RESOLUTION-19 ""
*MEAS_COND_AXIS_RESOLUTION-2 "0.0001"
*MEAS_COND_AXIS_RESOLUTION-20 ""
*MEAS_COND_AXIS_RESOLUTION-21 ""
*MEAS_COND_AXIS_RESOLUTION-22 ""
*MEAS_COND_AXIS_RESOLUTION-23 "0.1"
*MEAS_COND_AXIS_RESOLUTION-24 "0.1"
*MEAS_COND_AXIS_RESOLUTION-25 "0.1"
*MEAS_COND_AXIS_RESOLUTION-26 ""
*MEAS_COND_AXIS_RESOLUTION-27 ""
*MEAS_COND_AXIS_RESOLUTION-28 "1"
*MEAS_COND_AXIS_RESOLUTION-29 ""
*MEAS_COND_AXIS_RESOLUTION-3 "0.0001"
*MEAS_COND_AXIS_RESOLUTION-30 ""
*MEAS_COND_AXIS_RESOLUTION-31 ""
*MEAS_COND_AXIS_RESOLUTION-32 "0.01"
*MEAS_COND_AXIS_RESOLUTION-33 "0.010000"
*MEAS_COND_AXIS_RESOLUTION-34 "0.01"
*MEAS_COND_AXIS_RESOLUTION-35 "0.01"
*MEAS_COND_AXIS_RESOLUTION-36 "0.01"
*MEAS_COND_AXIS_RESOLUTION-37 "1"
*MEAS_COND_AXIS_RESOLUTION-38 "1"
*MEAS_COND_AXIS_RESOLUTION-39 "1"
*MEAS_COND_AXIS_RESOLUTION-4 "0.0002"
*MEAS_COND_AXIS_RESOLUTION-40 "1"
*MEAS_COND_AXIS_RESOLUTION-41 "0.01"
*MEAS_COND_AXIS_RESOLUTION-42 "0.01"
*MEAS_COND_AXIS_RESOLUTION-43 "0.01"
*MEAS_COND_AXIS_RESOLUTION-44 "0.01"
*MEAS_COND_AXIS_RESOLUTION-45 "0.010000"
*MEAS_COND_AXIS_RESOLUTION-46 "1"
*MEAS_COND_AXIS_RESOLUTION-47 "0.100000"
*MEAS_COND_AXIS_RESOLUTION-48 "1.000000"
*MEAS_COND_AXIS_RESOLUTION-49 "0.010000"
*MEAS_COND_AXIS_RESOLUTION-5 "0.0002"
*MEAS_COND_AXIS_RESOLUTION-50 "0.01"
*MEAS_COND_AXIS_RESOLUTION-51 "0.01"
*MEAS_COND_AXIS_RESOLUTION-52 "0.1"
*MEAS_COND_AXIS_RESOLUTION-53 "1"
*MEAS_COND_AXIS_RESOLUTION-54 "0.01"
*MEAS_COND_AXIS_RESOLUTION-55 "1.000000"
*MEAS_COND_AXIS_RESOLUTION-56 "1"
*MEAS_COND_AXIS_RESOLUTION-57 "1.000000"
*MEAS_COND_AXIS_RESOLUTION-58 "1"
*MEAS_COND_AXIS_RESOLUTION-59 "0.01"
*MEAS_COND_AXIS_RESOLUTION-6 "0.0001"
*MEAS_COND_AXIS_RESOLUTION-60 "1"
*MEAS_COND_AXIS_RESOLUTION-61 "1"
*MEAS_COND_AXIS_RESOLUTION-62 "1"
*MEAS_COND_AXIS_RESOLUTION-63 "0.01"
*MEAS_COND_AXIS_RESOLUTION-64 "1.000000"
*MEAS_COND_AXIS_RESOLUTION-65 "1.000000"
*MEAS_COND_AXIS_RESOLUTION-66 "1.000000"
*MEAS_COND_AXIS_RESOLUTION-67 "-"
*MEAS_COND_AXIS_RESOLUTION-68 "-"
*MEAS_COND_AXIS_RESOLUTION-69 "-"
*MEAS_COND_AXIS_RESOLUTION-7 ""
*MEAS_COND_AXIS_RESOLUTION-70 "1.000000"
*MEAS_COND_AXIS_RESOLUTION-71 "-"
*MEAS_COND_AXIS_RESOLUTION-72 "-"
*MEAS_COND_AXIS_RESOLUTION-73 "-"
*MEAS_COND_AXIS_RESOLUTION-74 "1.000000"
*MEAS_COND_AXIS_RESOLUTION-75 "1.000000"
*MEAS_COND_AXIS_RESOLUTION-76 "1.000000"
*MEAS_COND_AXIS_RESOLUTION-77 "1.000000"
*MEAS_COND_AXIS_RESOLUTION-78 "1.000000"
*MEAS_COND_AXIS_RESOLUTION-79 "1.000000"
*MEAS_COND_AXIS_RESOLUTION-8 ""
*MEAS_COND_AXIS_RESOLUTION-80 "1.000000"
*MEAS_COND_AXIS_RESOLUTION-9 ""
*MEAS_COND_AXIS_STATE-0 "Fixed"
*MEAS_COND_AXIS_STATE-1 "Fixed"
*MEAS_COND_AXIS_STATE-10 "Fixed"
*MEAS_COND_AXIS_STATE-11 "Fixed"
*MEAS_COND_AXIS_STATE-12 "Fixed"
*MEAS_COND_AXIS_STATE-13 "Fixed"
*MEAS_COND_AXIS_STATE-14 "Fixed"
*MEAS_COND_AXIS_STATE-15 "Fixed"
*MEAS_COND_AXIS_STATE-16 "Fixed"
*MEAS_COND_AXIS_STATE-17 "Fixed"
*MEAS_COND_AXIS_STATE-18 "Fixed"
*MEAS_COND_AXIS_STATE-19 "Fixed"
*MEAS_COND_AXIS_STATE-2 "Fixed"
*MEAS_COND_AXIS_STATE-20 "Fixed"
*MEAS_COND_AXIS_STATE-21 "Fixed"
*MEAS_COND_AXIS_STATE-22 "Fixed"
*MEAS_COND_AXIS_STATE-23 "Fixed"
*MEAS_COND_AXIS_STATE-24 "Fixed"
*MEAS_COND_AXIS_STATE-25 "Fixed"
*MEAS_COND_AXIS_STATE-26 "Fixed"
*MEAS_COND_AXIS_STATE-27 "Fixed"
*MEAS_COND_AXIS_STATE-28 "Fixed"
*MEAS_COND_AXIS_STATE-29 "Fixed"
*MEAS_COND_AXIS_STATE-3 "Fixed"
*MEAS_COND_AXIS_STATE-30 "Fixed"
*MEAS_COND_AXIS_STATE-31 "Fixed"
*MEAS_COND_AXIS_STATE-32 "Fixed"
*MEAS_COND_AXIS_STATE-33 "Fixed"
*MEAS_COND_AXIS_STATE-34 "Fixed"
*MEAS_COND_AXIS_STATE-35 "Fixed"
*MEAS_COND_AXIS_STATE-36 "Fixed"
*MEAS_COND_AXIS_STATE-37 "Fixed"
*MEAS_COND_AXIS_STATE-38 "Fixed"
*MEAS_COND_AXIS_STATE-39 "Fixed"
*MEAS_COND_AXIS_STATE-4 "Scan"
*MEAS_COND_AXIS_STATE-40 "Fixed"
*MEAS_COND_AXIS_STATE-41 "Fixed"
*MEAS_COND_AXIS_STATE-42 "Fixed"
*MEAS_COND_AXIS_STATE-43 "Fixed"
*MEAS_COND_AXIS_STATE-44 "Fixed"
*MEAS_COND_AXIS_STATE-45 "Fixed"
*MEAS_COND_AXIS_STATE-46 "Fixed"
*MEAS_COND_AXIS_STATE-47 "Fixed"
*MEAS_COND_AXIS_STATE-48 "Fixed"
*MEAS_COND_AXIS_STATE-49 "Fixed"
*MEAS_COND_AXIS_STATE-5 "Fixed"
*MEAS_COND_AXIS_STATE-50 "Fixed"
*MEAS_COND_AXIS_STATE-51 "Fixed"
*MEAS_COND_AXIS_STATE-52 "Fixed"
*MEAS_COND_AXIS_STATE-53 "Fixed"
*MEAS_COND_AXIS_STATE-54 "Fixed"
*MEAS_COND_AXIS_STATE-55 "Fixed"
*MEAS_COND_AXIS_STATE-56 "Fixed"
*MEAS_COND_AXIS_STATE-57 "Fixed"
*MEAS_COND_AXIS_STATE-58 "Fixed"
*MEAS_COND_AXIS_STATE-59 "Fixed"
*MEAS_COND_AXIS_STATE-6 "Fixed"
*MEAS_COND_AXIS_STATE-60 "Fixed"
*MEAS_COND_AXIS_STATE-61 "Fixed"
*MEAS_COND_AXIS_STATE-62 "Fixed"
*MEAS_COND_AXIS_STATE-63 "Fixed"
*MEAS_COND_AXIS_STATE-64 "Fixed"
*MEAS_COND_AXIS_STATE-65 "Fixed"
*MEAS_COND_AXIS_STATE-66 "Fixed"
*MEAS_COND_AXIS_STATE-67 "Fixed"
*MEAS_COND_AXIS_STATE-68 "Fixed"
*MEAS_COND_AXIS_STATE-69 "Fixed"
*MEAS_COND_AXIS_STATE-7 "Fixed"
*MEAS_COND_AXIS_STATE-70 "Fixed"
*MEAS_COND_AXIS_STATE-71 "Fixed"
*MEAS_COND_AXIS_STATE-72 "Fixed"
*MEAS_COND_AXIS_STATE-73 "Fixed"
*MEAS_COND_AXIS_STATE-74 "Fixed"
*MEAS_COND_AXIS_STATE-75 "Fixed"
*MEAS_COND_AXIS_STATE-76 "Fixed"
*MEAS_COND_AXIS_STATE-77 "Fixed"
*MEAS_COND_AXIS_STATE-78 "Fixed"
*MEAS_COND_AXIS_STATE-79 "Fixed"
*MEAS_COND_AXIS_STATE-8 "Fixed"
*MEAS_COND_AXIS_STATE-80 "Fixed"
*MEAS_COND_AXIS_STATE-9 "Fixed"
*MEAS_COND_AXIS_UNIT-0 "deg"
*MEAS_COND_AXIS_UNIT-1 "deg"
*MEAS_COND_AXIS_UNIT-10 ""
*MEAS_COND_AXIS_UNIT-11 "mm"
*MEAS_COND_AXIS_UNIT-12 ""
*MEAS_COND_AXIS_UNIT-13 "mm"
*MEAS_COND_AXIS_UNIT-14 ""
*MEAS_COND_AXIS_UNIT-15 ""
*MEAS_COND_AXIS_UNIT-16 ""
*MEAS_COND_AXIS_UNIT-17 "mm"
*MEAS_COND_AXIS_UNIT-18 ""
*MEAS_COND_AXIS_UNIT-19 ""
*MEAS_COND_AXIS_UNIT-2 "deg"
*MEAS_COND_AXIS_UNIT-20 ""
*MEAS_COND_AXIS_UNIT-21 ""
*MEAS_COND_AXIS_UNIT-22 ""
*MEAS_COND_AXIS_UNIT-23 ""
*MEAS_COND_AXIS_UNIT-24 "mm"
*MEAS_COND_AXIS_UNIT-25 ""
*MEAS_COND_AXIS_UNIT-26 ""
*MEAS_COND_AXIS_UNIT-27 ""
*MEAS_COND_AXIS_UNIT-28 "keV"
*MEAS_COND_AXIS_UNIT-29 ""
*MEAS_COND_AXIS_UNIT-3 "deg"
*MEAS_COND_AXIS_UNIT-30 ""
*MEAS_COND_AXIS_UNIT-31 ""
*MEAS_COND_AXIS_UNIT-32 "H"
*MEAS_COND_AXIS_UNIT-33 "H"
*MEAS_COND_AXIS_UNIT-34 "H"
*MEAS_COND_AXIS_UNIT-35 "H"
*MEAS_COND_AXIS_UNIT-36 "H"
*MEAS_COND_AXIS_UNIT-37 "mV"
*MEAS_COND_AXIS_UNIT-38 "V"
*MEAS_COND_AXIS_UNIT-39 "V"
*MEAS_COND_AXIS_UNIT-4 "deg"
*MEAS_COND_AXIS_UNIT-40 "V"
*MEAS_COND_AXIS_UNIT-41 "H"
*MEAS_COND_AXIS_UNIT-42 "H"
*MEAS_COND_AXIS_UNIT-43 "H"
*MEAS_COND_AXIS_UNIT-44 "H"
*MEAS_COND_AXIS_UNIT-45 "H"
*MEAS_COND_AXIS_UNIT-46 "uS/m"
*MEAS_COND_AXIS_UNIT-47 "L/min"
*MEAS_COND_AXIS_UNIT-48 "degree"
*MEAS_COND_AXIS_UNIT-49 "MPa"
*MEAS_COND_AXIS_UNIT-5 "deg"
*MEAS_COND_AXIS_UNIT-50 "MPa"
*MEAS_COND_AXIS_UNIT-51 "MPa"
*MEAS_COND_AXIS_UNIT-52 "L/min"
*MEAS_COND_AXIS_UNIT-53 "C"
*MEAS_COND_AXIS_UNIT-54 "MPa"
*MEAS_COND_AXIS_UNIT-55 "degree"
*MEAS_COND_AXIS_UNIT-56 "percent"
*MEAS_COND_AXIS_UNIT-57 "degree"
*MEAS_COND_AXIS_UNIT-58 "C"
*MEAS_COND_AXIS_UNIT-59 "H"
*MEAS_COND_AXIS_UNIT-6 "deg"
*MEAS_COND_AXIS_UNIT-60 "time"
*MEAS_COND_AXIS_UNIT-61 "msec"
*MEAS_COND_AXIS_UNIT-62 "msec"
*MEAS_COND_AXIS_UNIT-63 "H"
*MEAS_COND_AXIS_UNIT-64 "times"
*MEAS_COND_AXIS_UNIT-65 "msec"
*MEAS_COND_AXIS_UNIT-66 "msec"
*MEAS_COND_AXIS_UNIT-67 "-"
*MEAS_COND_AXIS_UNIT-68 "-"
*MEAS_COND_AXIS_UNIT-69 "-"
*MEAS_COND_AXIS_UNIT-7 ""
*MEAS_COND_AXIS_UNIT-70 ""
*MEAS_COND_AXIS_UNIT-71 "-"
*MEAS_COND_AXIS_UNIT-72 "-"
*MEAS_COND_AXIS_UNIT-73 "-"
*MEAS_COND_AXIS_UNIT-74 ""
*MEAS_COND_AXIS_UNIT-75 ""
*MEAS_COND_AXIS_UNIT-76 ""
*MEAS_COND_AXIS_UNIT-77 ""
*MEAS_COND_AXIS_UNIT-78 ""
*MEAS_COND_AXIS_UNIT-79 ""
*MEAS_COND_AXIS_UNIT-8 ""
*MEAS_COND_AXIS_UNIT-80 ""
*MEAS_COND_AXIS_UNIT-81 ""
*MEAS_COND_AXIS_UNIT-82 ""
*MEAS_COND_AXIS_UNIT-83 ""
*MEAS_COND_AXIS_UNIT-84 ""
*MEAS_COND_AXIS_UNIT-9 ""
*MEAS_COND_COUNTER_CENTER_X "48.5"
*MEAS_COND_COUNTER_CENTER_Y "192.5"
*MEAS_COND_COUNTER_COUNTMODE "Differential"
*MEAS_COND_COUNTER_DEADTIMECORRECTION "Enabled"
*MEAS_COND_COUNTER_DISTANCE "300"
*MEAS_COND_COUNTER_ENERGYMODE "Standard"
*MEAS_COND_COUNTER_INTEGRALMODE "Line"
*MEAS_COND_COUNTER_PHA_UNIT "keV"
*MEAS_COND_COUNTER_PHABASE "6.0"
*MEAS_COND_COUNTER_PHAWINDOW "4.0"
*MEAS_COND_COUNTER_PITCH_X "0.1"
*MEAS_COND_COUNTER_PITCH_Y "0.1"
*MEAS_COND_COUNTER_PITCHUNIT "mm"
*MEAS_COND_COUNTER_VALIDWIDTH_X "192"
*MEAS_COND_COUNTER_VALIDWIDTH_Y "201"
*MEAS_COND_OPT_ATTR "BB"
*MEAS_COND_OPT_NAME ""
*MEAS_COND_XG_CURRENT "40"
*MEAS_COND_XG_VOLTAGE "40"
*MEAS_COND_XG_WAVE_TYPE "Ka"
*MEAS_DATA_COUNT "3801"
*MEAS_SCAN_AXIS_X "TwoThetaTheta"
*MEAS_SCAN_AXIS_X_INTERNAL "TwoThetaTheta"
*MEAS_SCAN_END_TIME "09/09/2025 13:35:14"
*MEAS_SCAN_MODE "CONTINUOUS"
*MEAS_SCAN_MODE_INTERNAL "TDI_1D"
*MEAS_SCAN_RESOLUTION_X "0.0002"
*MEAS_SCAN_SPEED "10.0000"
*MEAS_SCAN_SPEED_UNIT "deg/min"
*MEAS_SCAN_START "2.0000"
*MEAS_SCAN_START_TIME "09/09/2025 13:30:46"
*MEAS_SCAN_STEP "0.0100"
*MEAS_SCAN_STOP "40.0000"
*MEAS_SCAN_UNEQUALY_SPACED "False"
*MEAS_SCAN_UNIT_X "deg"
*MEAS_SCAN_UNIT_Y "cps"
#Intensity_unit=cps
#Attenuator_coefficient=1.0000
2.0000 33411.0556
2.0100 32678.1434
2.0200 33253.9368
2.0300 32948.6450
2.0400 33499.9572
2.0500 32120.8008
2.0600 32558.4270
2.0700 31737.4410
2.0800 30756.8786
2.0900 31692.8466
2.1000 31276.9266
2.1100 30460.7950
2.1200 31551.4710
2.1300 29588.6494
2.1400 29117.3056
2.1500 28999.6744
2.1600 28256.0730
2.1700 28862.0300
2.1800 27247.0114
2.1900 27852.5512
2.2000 29213.4502
2.2100 28701.4302
2.2200 27854.5390
2.2300 27271.1996
2.2400 28332.1960
2.2500 27082.3038
2.2600 26307.9834
2.2700 25497.7884
2.2800 24981.6080
2.2900 25050.5350
2.3000 26757.4564
2.3100 26209.7392
2.3200 24942.8324
2.3300 25233.2316
2.3400 25279.9438
2.3500 25882.5764
2.3600 25896.3704
2.3700 24960.6140
2.3800 26265.6656
2.3900 24400.2176
2.4000 24842.7266
2.4100 23635.2560
2.4200 24601.3326
2.4300 24962.4126
2.4400 25454.9622
2.4500 24616.1722
2.4600 24512.8824
2.4700 23499.7376
2.4800 24818.5832
2.4900 23752.5818
2.5000 22289.2110
2.5100 22695.8090
2.5200 22441.0014
2.5300 22249.0092
2.5400 22575.8382
2.5500 22563.4562
2.5600 22133.7300
2.5700 21801.3530
2.5800 22061.1044
2.5900 22159.1716
2.6000 22255.7922
2.6100 20570.4448
2.6200 20957.2326
2.6300 21230.8960
2.6400 20635.2722
2.6500 20910.8440
2.6600 21048.2890
2.6700 21227.8462
2.6800 21036.5418
2.6900 19911.1612
2.7000 20340.5132
2.7100 20788.4664
2.7200 18719.8872
2.7300 19635.2518
2.7400 19389.7542
2.7500 18821.8934
2.7600 19702.8952
2.7700 19368.5770
2.7800 19031.4534
2.7900 18640.3626
2.8000 18901.1150
2.8100 18367.9444
2.8200 19084.9732
2.8300 17816.5304
2.8400 18377.4820
2.8500 17685.0626
2.8600 17619.6310
2.8700 17451.4200
2.8800 17021.7448
2.8900 18079.5350
2.9000 18216.9068
2.9100 17621.6044
2.9200 17094.8974
2.9300 16600.6602
2.9400 17903.3204
2.9500 17659.6984
2.9600 16534.5276
2.9700 16297.7874
2.9800 16372.6898
2.9900 16801.8576
3.0000 16330.3690
3.0100 16750.8688
3.0200 15680.1696
3.0300 17174.1516
3.0400 15409.8664
3.0500 15973.3256
3.0600 16623.7528
3.0700 16013.8662
3.0800 15860.5540
3.0900 15458.5022
3.1000 15585.8602
3.1100 16751.7944
3.1200 16663.8052
3.1300 15909.6090
3.1400 15789.8986
3.1500 15906.2328
3.1600 16590.2038
3.1700 15948.4986
3.1800 15923.1872
3.1900 16120.5506
3.2000 15873.9848
3.2100 15389.1916
3.2200 15525.0886
3.2300 16221.9594
3.2400 15741.9872
3.2500 15041.7612
3.2600 16189.9984
3.2700 15118.6452
3.2800 14986.5764
3.2900 15440.8304
3.3000 16341.8234
3.3100 15822.5546
3.3200 15358.2936
3.3300 15532.6304
3.3400 16280.9580
3.3500 15112.3648
3.3600 15005.9712
3.3700 15649.5544
3.3800 14705.6946
3.3900 14995.0206
3.4000 15145.7366
3.4100 14379.6000
3.4200 15147.0530
3.4300 14272.6572
3.4400 14929.3894
3.4500 14743.5282
3.4600 14597.6318
3.4700 15039.8692
3.4800 15257.7758
3.4900 15964.4186
3.5000 15411.6222
3.5100 15453.7120
3.5200 15416.8884
3.5300 14554.8492
3.5400 14294.3512
3.5500 14739.2518
3.5600 14847.7142
3.5700 14898.7478
3.5800 13692.7684
3.5900 14093.4082
3.6000 14435.6964
3.6100 14299.9716
3.6200 14035.5224
3.6300 13158.9122
3.6400 12664.1784
3.6500 13704.5278
3.6600 13895.0408
3.6700 13996.5332
3.6800 13697.7010
3.6900 14014.2558
3.7000 12900.5228
3.7100 13570.5546
3.7200 14231.8726
3.7300 13754.7588
3.7400 13942.6442
3.7500 14076.8066
3.7600 13358.0932
3.7700 13722.4456
3.7800 13778.9438
3.7900 13386.7900
3.8000 13644.7214
3.8100 12996.0846
3.8200 13470.9168
3.8300 13472.9106
3.8400 12981.3996
3.8500 13541.5304
3.8600 13681.3304
3.8700 13834.6650
3.8800 13948.5138
3.8900 13134.6446
3.9000 12937.2244
3.9100 13292.9158
3.9200 12893.9128
3.9300 12356.9030
3.9400 13173.6572
3.9500 13210.6190
3.9600 12259.0148
3.9700 13453.1412
3.9800 13504.3580
3.9900 12557.1524
4.0000 12666.6442
4.0100 13607.1116
4.0200 13693.9708
4.0300 13349.1100
4.0400 12610.1562
4.0500 12400.1384
4.0600 12896.5138
4.0700 12388.0706
4.0800 13428.0132
4.0900 13319.0470
4.1000 12636.7890
4.1100 12190.3686
4.1200 12394.3004
4.1300 12005.2510
4.1400 11558.8602
4.1500 12676.9094
4.1600 12732.5398
4.1700 12406.2174
4.1800 12443.1010
4.1900 12393.0614
4.2000 12674.1546
4.2100 12210.1868
4.2200 11806.8908
4.2300 13085.7706
4.2400 12283.3324
4.2500 12473.7508
4.2600 11944.7348
4.2700 12306.4230
4.2800 12020.6034
4.2900 12188.3646
4.3000 11844.7804
4.3100 12153.1118
4.3200 11925.8932
4.3300 12586.4318
4.3400 11493.6788
4.3500 11627.2380
4.3600 11977.6388
4.3700 11126.9328
4.3800 11736.4888
4.3900 12602.7140
4.4000 10972.7194
4.4100 11059.5510
4.4200 11065.8610
4.4300 11196.6064
4.4400 11724.9816
4.4500 11740.3880
4.4600 12431.9142
4.4700 11876.6714
4.4800 11597.2748
4.4900 11825.0194
4.5000 11422.3612
4.5100 11454.7384
4.5200 11492.5852
4.5300 12052.5808
4.5400 11003.3956
4.5500 11759.3832
4.5600 11966.6342
4.5700 11686.9070
4.5800 10843.5690
4.5900 11480.3944
4.6000 11832.6680
4.6100 11377.1972
4.6200 11591.8090
4.6300 11476.6886
4.6400 11430.6448
4.6500 11317.6442
4.6600 11366.6320
4.6700 11371.6268
4.6800 11045.2534
4.6900 10242.5334
4.7000 11031.5338
4.7100 10665.8538
4.7200 11328.1422
4.7300 12099.4304
4.7400 11205.7118
4.7500 10762.9222
4.7600 11491.9016
4.7700 11405.1148
4.7800 11640.1124
4.7900 11827.4108
4.8000 11397.3866
4.8100 10916.2272
4.8200 10620.7794
4.8300 11515.0828
4.8400 11631.3212
4.8500 10828.8808
4.8600 10801.4334
4.8700 10825.0184
4.8800 11364.5234
4.8900 12519.8772
4.9000 11804.7242
4.9100 11426.3418
4.9200 11050.1272
4.9300 11084.1624
4.9400 10958.7138
4.9500 10919.4702
4.9600 11154.4474
4.9700 10936.3922
4.9800 10122.0500
4.9900 10326.7294
5.0000 11652.4262
5.0100 11012.5508
5.0200 10951.8250
5.0300 10260.6110
5.0400 10937.8112
5.0500 11393.8018
5.0600 10592.7266
5.0700 11049.6888
5.0800 11338.1968
5.0900 11320.6522
5.1000 11370.5708
5.1100 10875.7486
5.1200 10498.3724
5.1300 10837.7900
5.1400 10664.8834
5.1500 10568.3004
5.1600 10853.0446
5.1700 10556.9854
5.1800 11170.8578
5.1900 11479.2552
5.2000 11241.5650
5.2100 11738.0778
5.2200 11268.2464
5.2300 10930.2908
5.2400 10522.0804
5.2500 10815.7358
5.2600 10968.7866
5.2700 11425.2320
5.2800 11432.6466
5.2900 11826.2878
5.3000 11403.7984
5.3100 11518.9972
5.3200 11249.2238
5.3300 10133.8278
5.3400 11741.7836
5.3500 11386.6078
5.3600 11585.2518
5.3700 10500.7558
5.3800 10777.9216
5.3900 11630.9316
5.4000 11716.4114
5.4100 11132.5408
5.4200 11548.8220
5.4300 11041.7684
5.4400 11804.7058
5.4500 11972.4844
5.4600 11454.8970
5.4700 11986.3586
5.4800 11610.6984
5.4900 12308.7922
5.5000 12039.4022
5.5100 12039.7776
5.5200 11713.5560
5.5300 11660.2498
5.5400 12172.4772
5.5500 12126.6174
5.5600 11894.5140
5.5700 12309.6944
5.5800 11172.4620
5.5900 11793.0410
5.6000 11671.7356
5.6100 11957.2194
5.6200 12600.6562
5.6300 12276.3896
5.6400 12574.6318
5.6500 12767.8030
5.6600 12438.3544
5.6700 12727.6500
5.6800 13222.4508
5.6900 12624.1588
5.7000 12251.7028
5.7100 12530.9042
5.7200 13034.5256
5.7300 13107.1268
5.7400 12851.0660
5.7500 12563.7624
5.7600 13333.6954
5.7700 12853.8716
5.7800 12670.1122
5.7900 13124.0042
5.8000 13583.8328
5.8100 12917.6900
5.8200 12958.9396
5.8300 13551.9806
5.8400 14057.9508
5.8500 13647.3094
5.8600 13071.2270
5.8700 14589.9974
5.8800 13645.9280
5.8900 14140.9362
5.9000 14200.8372
5.9100 13952.7862
5.9200 13896.1050
5.9300 13318.6838
5.9400 13778.6428
5.9500 15177.0936
5.9600 14184.3912
5.9700 14671.3256
5.9800 15140.7938
5.9900 14998.7426
6.0000 14984.4798
6.0100 15207.9844
6.0200 15933.7900
6.0300 15666.2882
6.0400 16012.9414
6.0500 15603.1312
6.0600 15689.8926
6.0700 15953.8626
6.0800 15811.0830
6.0900 16163.4990
6.1000 16414.7360
6.1100 16761.8694
6.1200 16551.8290
6.1300 17133.9458
6.1400 17013.8336
6.1500 17571.7570
6.1600 17996.7204
6.1700 19300.2624
6.1800 19376.8900
6.1900 19038.0270
6.2000 18582.9366
6.2100 19734.9712
6.2200 19807.3506
6.2300 19806.1280
6.2400 19434.5092
6.2500 20464.0076
6.2600 20870.3838
6.2700 20841.2252
6.2800 21887.0096
6.2900 22865.5822
6.3000 22724.5402
6.3100 22441.4876
6.3200 22821.8262
6.3300 22003.4750
6.3400 22369.9178
6.3500 23252.2868
6.3600 25028.8920
6.3700 23937.3210
6.3800 24563.8082
6.3900 24922.3348
6.4000 24722.5504
6.4100 25253.6540
6.4200 27620.2820
6.4300 28939.7604
6.4400 28830.4504
6.4500 29196.3746
6.4600 29528.2226
6.4700 30535.9334
6.4800 30663.2120
6.4900 31151.0192
6.5000 31230.2836
6.5100 33201.5178
6.5200 34602.5106
6.5300 34807.3282
6.5400 35627.1850
6.5500 38075.1384
6.5600 37352.2786
6.5700 38235.1522
6.5800 39686.3892
6.5900 40895.0032
6.6000 42430.4932
6.6100 43801.6520
6.6200 43834.4482
6.6300 46619.5922
6.6400 46848.9584
6.6500 49874.1048
6.6600 49878.9388
6.6700 51923.2950
6.6800 54071.8790
6.6900 58451.9572
6.7000 58688.2772
6.7100 62330.3426
6.7200 63745.5566
6.7300 66901.5706
6.7400 69282.5846
6.7500 70719.3684
6.7600 75761.0922
6.7700 78799.0642
6.7800 80769.2952
6.7900 86082.5846
6.8000 88728.7598
6.8100 93009.3424
6.8200 98635.4166
6.8300 103835.6770
6.8400 112188.6150
6.8500 119304.4434
6.8600 123035.4004
6.8700 133851.4322
6.8800 143210.9700
6.8900 150280.4036
6.9000 160325.4882
6.9100 170444.7916
6.9200 177760.7422
6.9300 187266.3412
6.9400 187111.3606
6.9500 187882.0800
6.9600 184215.4460
6.9700 175302.7506
6.9800 158465.0716
6.9900 138605.4362
7.0000 112789.2334
7.0100 91750.3662
7.0200 70603.2146
7.0300 54805.8106
7.0400 44448.3072
7.0500 35693.8924
7.0600 29640.1000
7.0700 25262.1766
7.0800 22685.1014
7.0900 21883.3780
7.1000 19752.6814
7.1100 19299.2412
7.1200 18685.4838
7.1300 18237.3780
7.1400 16566.9840
7.1500 16186.5092
7.1600 15376.4546
7.1700 15170.3074
7.1800 14557.8054
7.1900 13243.8050
7.2000 12162.3332
7.2100 11828.6326
7.2200 11413.4490
7.2300 11143.1996
7.2400 11069.0958
7.2500 10899.3582
7.2600 10934.5184
7.2700 10384.4696
7.2800 10203.7384
7.2900 10194.4906
7.3000 9485.5102
7.3100 9634.8206
7.3200 10291.1978
7.3300 10323.4050
7.3400 10189.6138
7.3500 10337.1288
7.3600 9782.0638
7.3700 9464.8794
7.3800 9514.8652
7.3900 9291.9292
7.4000 8719.9758
7.4100 9059.2386
7.4200 8557.7922
7.4300 9203.4882
7.4400 8894.7236
7.4500 8590.1480
7.4600 9771.6848
7.4700 9123.8780
7.4800 9381.0832
7.4900 9099.0988
7.5000 8901.4678
7.5100 9547.7610
7.5200 8792.0238
7.5300 8947.3022
7.5400 8775.4090
7.5500 8980.7952
7.5600 9039.5142
7.5700 8368.6492
7.5800 8952.6490
7.5900 9621.3602
7.6000 7246.9070
7.6100 8138.4252
7.6200 8972.0764
7.6300 8174.3602
7.6400 8263.0956
7.6500 8492.3350
7.6600 8967.0746
7.6700 8021.0876
7.6800 8455.7648
7.6900 7682.6330
7.7000 7961.8342
7.7100 7985.5312
7.7200 8464.7638
7.7300 7794.1122
7.7400 8171.4152
7.7500 8003.7526
7.7600 7968.5736
7.7700 7948.8688
7.7800 8323.9828
7.7900 7931.6060
7.8000 7092.8110
7.8100 7773.3414
7.8200 7671.2606
7.8300 7940.5766
7.8400 8163.7476
7.8500 7647.8062
7.8600 7878.3020
7.8700 7774.4364
7.8800 7869.8898
7.8900 7411.1064
7.9000 7845.1722
7.9100 7443.9626
7.9200 7348.0968
7.9300 7236.7492
7.9400 6588.3010
7.9500 6731.9468
7.9600 7891.6442
7.9700 7757.7748
7.9800 7737.7778
7.9900 7816.2124
8.0000 7092.6596
8.0100 7303.3880
8.0200 7525.9490
8.0300 7576.0676
8.0400 7679.9168
8.0500 7004.6586
8.0600 7122.8586
8.0700 7551.0976
8.0800 7400.1144
8.0900 7418.8090
8.1000 7128.0736
8.1100 7281.8594
8.1200 7881.7698
8.1300 7463.0224
8.1400 6903.0268
8.1500 7181.6986
8.1600 7159.5302
8.1700 6977.0920
8.1800 7006.1024
8.1900 7409.6216
8.2000 6897.3206
8.2100 7377.1764
8.2200 7433.2066
8.2300 7292.0192
8.2400 7180.2810
8.2500 6821.2320
8.2600 7317.5196
8.2700 6789.7740
8.2800 6954.2144
8.2900 6560.3292
8.3000 6672.5866
8.3100 6175.1810
8.3200 7101.4410
8.3300 6671.0988
8.3400 6608.9370
8.3500 6324.9018
8.3600 6552.8906
8.3700 6416.2552
8.3800 6566.4556
8.3900 7367.8910
8.4000 6971.7030
8.4100 7413.0712
8.4200 6802.8372
8.4300 6526.6470
8.4400 6538.6718
8.4500 6749.6322
8.4600 6770.4498
8.4700 6390.2918
8.4800 6721.4940
8.4900 6444.8654
8.5000 6516.3158
8.5100 7069.1736
8.5200 7017.6524
8.5300 6848.3226
8.5400 6850.4374
8.5500 6882.8562
8.5600 6148.1980
8.5700 6395.4636
8.5800 6660.4222
8.5900 6563.0092
8.6000 6539.9454
8.6100 6754.1610
8.6200 5983.4036
8.6300 7000.6978
8.6400 6660.3154
8.6500 6892.1530
8.6600 7030.5054
8.6700 6325.9008
8.6800 6381.8384
8.6900 5952.5726
8.7000 6072.7320
8.7100 6311.2682
8.7200 6007.2866
8.7300 5892.5084
8.7400 6111.6068
8.7500 6952.1326
8.7600 6596.8638
8.7700 5974.5040
8.7800 6628.9550
8.7900 6352.5126
8.8000 6126.9872
8.8100 6260.5702
8.8200 6110.5860
8.8300 6017.1214
8.8400 6301.3784
8.8500 5758.0780
8.8600 5815.5242
8.8700 6012.0530
8.8800 5789.0014
8.8900 6687.2254
8.9000 5411.4700
8.9100 6000.2238
8.9200 5745.6554
8.9300 6388.1374
8.9400 6095.3670
8.9500 6023.8794
8.9600 6190.7546
8.9700 5730.9098
8.9800 6059.3710
8.9900 6015.4144
9.0000 6314.0982
9.0100 6002.9750
9.0200 6031.1594
9.0300 6581.9784
9.0400 5507.9422
9.0500 6277.5050
9.0600 5863.4344
9.0700 6156.2958
9.0800 5517.7474
9.0900 6106.7774
9.1000 5912.0840
9.1100 5937.0748
9.1200 5830.6738
9.1300 5975.1810
9.1400 5993.8206
9.1500 5788.4166
9.1600 5486.3872
9.1700 5856.3294
9.1800 5955.4112
9.1900 5614.2288
9.2000 6081.4840
9.2100 6369.6910
9.2200 5903.6988
9.2300 5602.3386
9.2400 6179.3244
9.2500 5906.8094
9.2600 6229.3666
9.2700 6280.9316
9.2800 6020.3328
9.2900 5905.8528
9.3000 5603.2526
9.3100 5644.7180
9.3200 5491.2994
9.3300 6022.1806
9.3400 5935.3836
9.3500 5806.1314
9.3600 5772.7896
9.3700 5826.2482
9.3800 5419.9320
9.3900 5995.9304
9.4000 5628.3890
9.4100 5631.3802
9.4200 5172.7422
9.4300 5652.5788
9.4400 5564.5402
9.4500 5350.9750
9.4600 6123.4634
9.4700 5291.5608
9.4800 6095.6100
9.4900 5565.8706
9.5000 5832.2510
9.5100 6238.8910
9.5200 5678.7018
9.5300 5864.7838
9.5400 5498.8592
9.5500 5417.0918
9.5600 5718.3008
9.5700 5839.4866
9.5800 5823.7284
9.5900 5792.7420
9.6000 5537.3144
9.6100 5380.6320
9.6200 5416.1744
9.6300 5860.6180
9.6400 5583.4672
9.6500 5374.8154
9.6600 5474.3464
9.6700 5621.8288
9.6800 5719.5358
9.6900 5557.3552
9.7000 5330.4586
9.7100 5966.4526
9.7200 6029.6620
9.7300 6107.4142
9.7400 5628.7134
9.7500 5440.8426
9.7600 5507.5048
9.7700 5622.7540
9.7800 5562.9526
9.7900 5657.8160
9.8000 5011.7910
9.8100 5165.9698
9.8200 5868.6758
9.8300 5832.8492
9.8400 5688.0798
9.8500 5656.6492
9.8600 6089.3860
9.8700 5211.8154
9.8800 4955.5268
9.8900 5532.6548
9.9000 5197.1314
9.9100 5785.1258
9.9200 5309.3898
9.9300 5304.5406
9.9400 5185.1004
9.9500 5266.4592
9.9600 5351.4114
9.9700 5504.2622
9.9800 5387.7528
9.9900 5627.8662
10.0000 5242.4922
10.0100 5770.2138
10.0200 4958.5312
10.0300 5431.0898
10.0400 5146.6288
10.0500 5252.3992
10.0600 5482.9072
10.0700 5277.8514
10.0800 5574.7238
10.0900 5444.7124
10.1000 5456.6640
10.1100 5166.4160
10.1200 5468.6890
10.1300 5339.6672
10.1400 5323.2604
10.1500 5272.8806
10.1600 5835.8006
10.1700 5431.3598
10.1800 5842.6686
10.1900 5371.2254
10.2000 5291.9246
10.2100 5327.7558
10.2200 5726.4064
10.2300 5085.2372
10.2400 5490.1758
10.2500 5331.6650
10.2600 5463.6190
10.2700 5544.3288
10.2800 5456.1264
10.2900 5909.0678
10.3000 5962.7844
10.3100 5467.5360
10.3200 5262.4232
10.3300 5373.2372
10.3400 5267.7978
10.3500 5411.3194
10.3600 5147.8434
10.3700 5505.5654
10.3800 5265.1962
10.3900 5033.0806
10.4000 5716.2664
10.4100 5423.2768
10.4200 5615.0502
10.4300 5132.7724
10.4400 5431.8832
10.4500 5278.3616
10.4600 5460.6782
10.4700 5175.2706
10.4800 5613.7964
10.4900 5799.7554
10.5000 5543.7230
10.5100 5640.0890
10.5200 5467.7886
10.5300 5544.9564
10.5400 5523.5810
10.5500 6036.4558
10.5600 5808.1878
10.5700 5747.5514
10.5800 6198.1262
10.5900 5852.6916
10.6000 5446.6756
10.6100 5272.0938
10.6200 5516.7206
10.6300 6140.9276
10.6400 6551.9780
10.6500 5638.2050
10.6600 5659.2748
10.6700 6559.4030
10.6800 5905.8142
10.6900 6054.3986
10.7000 5642.4312
10.7100 6172.6308
10.7200 6180.6264
10.7300 6132.8644
10.7400 6128.8732
10.7500 6453.4160
10.7600 5981.9056
10.7700 6300.3748
10.7800 6525.6596
10.7900 6768.9702
10.8000 6204.9876
10.8100 6395.7342
10.8200 5642.3996
10.8300 6086.7080
10.8400 6790.5278
10.8500 6256.8492
10.8600 6472.3532
10.8700 6763.7436
10.8800 6742.0954
10.8900 6824.3978
10.9000 7088.6250
10.9100 6531.7576
10.9200 7093.3242
10.9300 6987.2412
10.9400 7479.8442
10.9500 7773.8164
10.9600 7256.1636
10.9700 7542.1184
10.9800 7435.6806
10.9900 7996.2632
11.0000 8028.3086
11.0100 8303.6642
11.0200 7576.8408
11.0300 7739.4166
11.0400 8530.4484
11.0500 8207.3756
11.0600 8689.2304
11.0700 8199.3480
11.0800 9033.9214
11.0900 8068.2322
11.1000 8810.9608
11.1100 9274.1200
11.1200 8802.3752
11.1300 8764.0748
11.1400 9987.6576
11.1500 9566.5710
11.1600 9192.9860
11.1700 9871.3806
11.1800 9363.0616
11.1900 10012.7766
11.2000 10320.4000
11.2100 10954.0974
11.2200 10622.3928
11.2300 10614.2080
11.2400 10753.8524
11.2500 11181.0394
11.2600 11688.4928
11.2700 11971.3928
11.2800 12178.1942
11.2900 11775.5300
11.3000 11942.4662
11.3100 12609.2306
11.3200 13265.4552
11.3300 14383.3374
11.3400 13969.3806
11.3500 14218.2028
11.3600 14872.2910
11.3700 15442.5914
11.3800 15915.1754
11.3900 16820.0724
11.4000 16186.0188
11.4100 16187.4268
11.4200 16959.7290
11.4300 17875.0428
11.4400 18271.4680
11.4500 19862.8174
11.4600 20190.9830
11.4700 20499.8006
11.4800 20839.1906
11.4900 21042.2322
11.5000 23143.2496
11.5100 23265.2548
11.5200 23621.5026
11.5300 25107.4972
11.5400 26659.9568
11.5500 27035.6324
11.5600 27684.7616
11.5700 29048.8098
11.5800 29680.3508
11.5900 30241.1458
11.6000 31966.9576
11.6100 33323.7792
11.6200 34508.3212
11.6300 36288.2976
11.6400 38139.2334
11.6500 39511.5398
11.6600 42434.8104
11.6700 44460.1074
11.6800 45966.6178
11.6900 49676.7660
11.7000 53532.9956
11.7100 56243.9942
11.7200 58048.2788
11.7300 61673.2178
11.7400 65202.2990
11.7500 68856.1198
11.7600 72350.7406
11.7700 79298.9746
11.7800 87091.8050
11.7900 93833.3334
11.8000 99286.6862
11.8100 105548.8606
11.8200 114914.8274
11.8300 126142.7002
11.8400 133748.9990
11.8500 144054.0202
11.8600 154477.4252
11.8700 157542.5456
11.8800 163948.3886
11.8900 166179.2480
11.9000 163780.8106
11.9100 157372.0540
11.9200 146624.9512
11.9300 130367.0818
11.9400 114837.2152
11.9500 97521.2240
11.9600 79210.2294
11.9700 63810.2336
11.9800 51333.8216
11.9900 44165.6902
12.0000 37593.8070
12.0100 31688.6372
12.0200 28092.3442
12.0300 25631.9112
12.0400 23862.9008
12.0500 22664.8906
12.0600 22642.5130
12.0700 22568.2516
12.0800 21997.5056
12.0900 23087.0096
12.1000 21444.8954
12.1100 21512.4206
12.1200 22273.7060
12.1300 21727.1790
12.1400 22853.1656
12.1500 23735.0708
12.1600 24124.2758
12.1700 24768.9432
12.1800 25656.4576
12.1900 28072.9228
12.2000 27520.5852
12.2100 27188.3646
12.2200 27536.2650
12.2300 26745.7824
12.2400 26293.3024
12.2500 24620.8760
12.2600 22931.0100
12.2700 20385.9598
12.2800 17454.8380
12.2900 16281.1798
12.3000 13727.1870
12.3100 11649.4364
12.3200 10936.9324
12.3300 9288.5162
12.3400 9055.7740
12.3500 8395.7438
12.3600 7993.3014
12.3700 7822.1130
12.3800 7796.7240
12.3900 7365.2140
12.4000 7836.8682
12.4100 7727.3386
12.4200 6414.9516
12.4300 6523.6246
12.4400 6802.6088
12.4500 6765.2908
12.4600 7134.0984
12.4700 6665.5060
12.4800 7252.1348
12.4900 6750.8744
12.5000 5988.5132
12.5100 6132.8562
12.5200 5874.9196
12.5300 5833.7244
12.5400 5776.5498
12.5500 6308.8714
12.5600 5687.4766
12.5700 6116.4114
12.5800 5888.6906
12.5900 6043.4612
12.6000 6210.2050
12.6100 6396.4462
12.6200 6384.6054
12.6300 6410.9752
12.6400 6412.7182
12.6500 6536.2560
12.6600 6163.0106
12.6700 5814.0590
12.6800 6624.5656
12.6900 5578.6672
12.7000 5723.6572
12.7100 6383.2500
12.7200 6060.2294
12.7300 5702.7624
12.7400 5896.4248
12.7500 5495.1594
12.7600 6195.4808
12.7700 5872.8130
12.7800 6138.1484
12.7900 5537.7366
12.8000 5942.1886
12.8100 5930.4032
12.8200 5337.8490
12.8300 5398.8704
12.8400 5383.0988
12.8500 5979.9982
12.8600 6094.6874
12.8700 5948.2590
12.8800 6068.4596
12.8900 5618.3208
12.9000 6080.0192
12.9100 5247.7462
12.9200 5659.3018
12.9300 5920.2118
12.9400 5950.9186
12.9500 6307.0028
12.9600 5801.0986
12.9700 6031.2780
12.9800 5652.2584
12.9900 5605.9454
13.0000 5321.5260
13.0100 5506.0282
13.0200 5962.8840
13.0300 5680.0222
13.0400 5961.6578
13.0500 6066.5950
13.0600 6166.5100
13.0700 6271.1528
13.0800 5429.1870
13.0900 6173.1150
13.1000 5826.9776
13.1100 5732.5186
13.1200 5348.2182
13.1300 5554.2236
13.1400 5530.4082
13.1500 5552.8494
13.1600 5515.6458
13.1700 5588.7792
13.1800 5682.8196
13.1900 6183.5444
13.2000 5537.9690
13.2100 5567.2332
13.2200 5812.4684
13.2300 5872.8618
13.2400 5553.2970
13.2500 5702.4454
13.2600 5646.9808
13.2700 5825.1002
13.2800 6024.8480
13.2900 6069.9082
13.3000 6325.5116
13.3100 6084.9970
13.3200 6438.1118
13.3300 6137.8250
13.3400 6210.7844
13.3500 6208.8902
13.3600 6390.4078
13.3700 6171.4228
13.3800 5735.2346
13.3900 5869.6100
13.4000 5959.3856
13.4100 6259.6558
13.4200 6143.3614
13.4300 6735.9904
13.4400 6850.8224
13.4500 6868.1716
13.4600 6917.9946
13.4700 6714.8722
13.4800 7343.2730
13.4900 7185.9034
13.5000 7248.5402
13.5100 7900.1440
13.5200 7601.3448
13.5300 7371.6040
13.5400 7563.9878
13.5500 7904.9256
13.5600 8578.2592
13.5700 8959.1410
13.5800 9110.5672
13.5900 9513.6984
13.6000 9485.2366
13.6100 9693.1784
13.6200 10877.2542
13.6300 11581.5450
13.6400 11420.8424
13.6500 12187.4400
13.6600 12577.6916
13.6700 13414.8916
13.6800 14193.9148
13.6900 14212.8012
13.7000 14392.2566
13.7100 13976.7212
13.7200 13886.0118
13.7300 13850.8444
13.7400 12662.4094
13.7500 12550.1954
13.7600 10961.4808
13.7700 10985.7340
13.7800 9708.0292
13.7900 7831.1208
13.8000 7415.3656
13.8100 6439.3992
13.8200 6537.3586
13.8300 6277.7486
13.8400 5892.5430
13.8500 6255.7994
13.8600 5240.4108
13.8700 5062.2188
13.8800 5745.5332
13.8900 5518.5516
13.9000 5097.6552
13.9100 5193.4728
13.9200 4956.2418
13.9300 4926.6220
13.9400 5485.2946
13.9500 5801.3682
13.9600 5232.7590
13.9700 5073.3480
13.9800 5645.5898
13.9900 5529.8218
14.0000 5468.9600
14.0100 5432.5450
14.0200 4708.7520
14.0300 4988.6684
14.0400 4977.3662
14.0500 5254.6998
14.0600 5089.9368
14.0700 5118.2490
14.0800 5703.5050
14.0900 4565.1092
14.1000 4969.9096
14.1100 4926.3122
14.1200 4845.9106
14.1300 4643.3040
14.1400 4846.3568
14.1500 5097.3134
14.1600 4927.3818
14.1700 4443.4550
14.1800 4663.1084
14.1900 4351.5538
14.2000 4891.6498
14.2100 4728.2522
14.2200 4508.2692
14.2300 4542.3284
14.2400 5172.5210
14.2500 4663.6586
14.2600 4710.6680
14.2700 4728.4704
14.2800 4548.6262
14.2900 4231.6252
14.3000 4907.0592
14.3100 4728.3880
14.3200 4673.7646
14.3300 4494.1060
14.3400 4815.1866
14.3500 4512.8194
14.3600 4514.2064
14.3700 4223.8108
14.3800 4488.8210
14.3900 5208.3258
14.4000 4629.4810
14.4100 4930.0338
14.4200 4340.8574
14.4300 4600.2990
14.4400 5128.3910
14.4500 4336.2570
14.4600 4590.8782
14.4700 4651.0438
14.4800 4747.5342
14.4900 4310.6114
14.5000 5109.1828
14.5100 4738.2598
14.5200 4730.3456
14.5300 4893.0760
14.5400 4930.0532
14.5500 4862.2736
14.5600 4797.5154
14.5700 4933.7428
14.5800 4859.6786
14.5900 4685.5952
14.6000 4229.6140
14.6100 4633.0252
14.6200 4841.6418
14.6300 4592.4388
14.6400 4922.7738
14.6500 4732.0902
14.6600 4678.8564
14.6700 4882.0374
14.6800 4689.9780
14.6900 4994.8726
14.7000 4267.3334
14.7100 4840.4938
14.7200 4586.7472
14.7300 5137.4842
14.7400 4629.7404
14.7500 4821.4412
14.7600 4250.4600
14.7700 4880.7820
14.7800 4585.6496
14.7900 4507.6238
14.8000 4623.9874
14.8100 4543.4880
14.8200 4493.1758
14.8300 4671.9390
14.8400 4896.4432
14.8500 4538.9262
14.8600 4219.6256
14.8700 4616.8712
14.8800 4463.7146
14.8900 5085.4940
14.9000 4877.3000
14.9100 4964.7974
14.9200 4876.8718
14.9300 4864.6302
14.9400 4551.6098
14.9500 4216.7560
14.9600 4739.5360
14.9700 4686.9838
14.9800 4630.5502
14.9900 4884.5860
15.0000 4344.0516
15.0100 4634.4960
15.0200 5245.6976
15.0300 4942.1352
15.0400 4578.8880
15.0500 5270.9030
15.0600 4714.1460
15.0700 5138.3672
15.0800 5089.9820
15.0900 5084.7030
15.1000 5381.0490
15.1100 5349.6902
15.1200 4870.6390
15.1300 4598.9552
15.1400 4962.8968
15.1500 5135.6658
15.1600 4874.6714
15.1700 5036.6566
15.1800 5051.9546
15.1900 5203.2598
15.2000 5622.1918
15.2100 5241.0706
15.2200 5156.7952
15.2300 4920.3410
15.2400 5009.4436
15.2500 5407.8964
15.2600 5645.6274
15.2700 5582.6202
15.2800 6109.7880
15.2900 6131.0568
15.3000 5652.5350
15.3100 5679.4404
15.3200 6133.1432
15.3300 6610.9614
15.3400 6280.9458
15.3500 6663.9888
15.3600 6148.1974
15.3700 6501.3210
15.3800 7046.4248
15.3900 7145.8334
15.4000 6657.0110
15.4100 7258.1564
15.4200 7239.0518
15.4300 7366.5960
15.4400 7158.8466
15.4500 7427.9144
15.4600 8719.7592
15.4700 8446.6720
15.4800 8964.0564
15.4900 8783.8542
15.5000 8803.9928
15.5100 9226.4222
15.5200 9747.2422
15.5300 10593.7012
15.5400 11209.7462
15.5500 11049.2310
15.5600 11398.9940
15.5700 11783.0952
15.5800 12966.6962
15.5900 12792.8924
15.6000 13621.2178
15.6100 13905.1372
15.6200 14829.8808
15.6300 14850.3754
15.6400 14763.1988
15.6500 14923.5890
15.6600 14621.4600
15.6700 14650.4100
15.6800 14878.0914
15.6900 14551.4678
15.7000 14400.9308
15.7100 15455.1768
15.7200 15286.5398
15.7300 15327.6968
15.7400 16470.6910
15.7500 17520.6360
15.7600 18729.6570
15.7700 18495.1314
15.7800 18887.1440
15.7900 19907.8166
15.8000 21741.0584
15.8100 22106.6304
15.8200 24626.8168
15.8300 25519.3888
15.8400 26528.0722
15.8500 27839.7054
15.8600 27848.1080
15.8700 29745.3370
15.8800 30124.5320
15.8900 30590.9628
15.9000 29779.2542
15.9100 27943.1660
15.9200 28023.0856
15.9300 27311.0412
15.9400 25504.9072
15.9500 25219.8384
15.9600 25215.9362
15.9700 23434.9324
15.9800 23589.9354
15.9900 23472.1762
16.0000 24270.9778
16.0100 25226.9816
16.0200 26106.5266
16.0300 27421.4722
16.0400 28388.5336
16.0500 28767.2688
16.0600 29127.0182
16.0700 32258.5206
16.0800 34660.8236
16.0900 35659.3098
16.1000 37730.4524
16.1100 40391.2680
16.1200 44077.1362
16.1300 47573.7792
16.1400 49943.3878
16.1500 54804.9602
16.1600 59317.0126
16.1700 65659.9080
16.1800 71729.7770
16.1900 80232.6578
16.2000 86503.5808
16.2100 95881.8684
16.2200 103814.5914
16.2300 110734.5134
16.2400 115998.7712
16.2500 117526.5056
16.2600 120576.3264
16.2700 118262.5814
16.2800 112122.8678
16.2900 106013.1674
16.3000 94619.1976
16.3100 83153.4912
16.3200 72437.3372
16.3300 62444.2626
16.3400 52480.8308
16.3500 42189.5020
16.3600 33658.3090
16.3700 27410.7788
16.3800 23853.3508
16.3900 19448.9400
16.4000 17482.4788
16.4100 15811.7320
16.4200 14100.0224
16.4300 12766.3524
16.4400 12713.0676
16.4500 11758.4636
16.4600 11060.0678
16.4700 10168.3308
16.4800 10114.2038
16.4900 9439.8580
16.5000 8855.9316
16.5100 8105.8120
16.5200 7873.1578
16.5300 8219.4570
16.5400 7934.7630
16.5500 8135.3118
16.5600 7343.5846
16.5700 7045.7322
16.5800 7810.4878
16.5900 7451.5890
16.6000 7107.8262
16.6100 7233.5450
16.6200 7730.5572
16.6300 7904.0518
16.6400 7861.6374
16.6500 7615.8204
16.6600 7656.0994
16.6700 7744.0654
16.6800 7710.2808
16.6900 7574.5936
16.7000 8493.1234
16.7100 8572.2656
16.7200 8837.1054
16.7300 9000.8250
16.7400 8756.7982
16.7500 9389.8540
16.7600 9134.2672
16.7700 9932.6274
16.7800 10010.0434
16.7900 9511.0392
16.8000 10278.7598
16.8100 10677.4566
16.8200 10841.3360
16.8300 11506.8918
16.8400 12059.4502
16.8500 11480.0304
16.8600 13564.8194
16.8700 13475.4120
16.8800 14512.7492
16.8900 15084.8632
16.9000 15478.8778
16.9100 16342.4022
16.9200 17598.1262
16.9300 17798.3500
16.9400 18570.0114
16.9500 21242.5436
16.9600 22611.1104
16.9700 23724.7172
16.9800 26765.9750
16.9900 27551.8412
17.0000 29650.6328
17.0100 33657.3404
17.0200 34273.9706
17.0300 36008.4026
17.0400 36292.3422
17.0500 36395.5932
17.0600 36408.4880
17.0700 33828.6722
17.0800 30328.4750
17.0900 27958.4432
17.1000 24076.0518
17.1100 19861.7534
17.1200 18518.2800
17.1300 14627.0722
17.1400 12171.4538
17.1500 10712.7126
17.1600 10063.9822
17.1700 8788.8418
17.1800 7526.7914
17.1900 7961.8820
17.2000 7503.8548
17.2100 7356.3330
17.2200 7255.6010
17.2300 7175.1384
17.2400 7515.4938
17.2500 6819.4366
17.2600 6536.7350
17.2700 6436.9390
17.2800 6344.4386
17.2900 6719.8684
17.3000 6147.0582
17.3100 6188.2176
17.3200 6038.9756
17.3300 6136.9654
17.3400 6301.1306
17.3500 6216.5462
17.3600 6303.1194
17.3700 6430.5806
17.3800 6676.8356
17.3900 5923.8358
17.4000 6227.1092
17.4100 6366.4546
17.4200 6311.8256
17.4300 6465.0558
17.4400 6759.2464
17.4500 6347.5204
17.4600 6672.7138
17.4700 6536.5854
17.4800 6322.6674
17.4900 6816.9184
17.5000 6595.2352
17.5100 7044.7906
17.5200 7123.4162
17.5300 7467.7942
17.5400 7573.7254
17.5500 7008.8562
17.5600 7909.3232
17.5700 7117.7628
17.5800 7497.0352
17.5900 7705.8782
17.6000 8168.0888
17.6100 8146.8252
17.6200 8574.3418
17.6300 8281.4854
17.6400 9158.2244
17.6500 9046.4366
17.6600 9765.8438
17.6700 9933.8338
17.6800 9414.3046
17.6900 9821.9248
17.7000 10988.1530
17.7100 10787.8072
17.7200 10871.4722
17.7300 12619.7642
17.7400 12641.4896
17.7500 13668.7094
17.7600 14465.7806
17.7700 14627.9256
17.7800 15769.2738
17.7900 16438.2396
17.8000 18313.0656
17.8100 19217.0512
17.8200 20324.5138
17.8300 21611.9894
17.8400 23024.8088
17.8500 24406.3802
17.8600 25309.3566
17.8700 24849.0254
17.8800 24816.6220
17.8900 23586.6598
17.9000 24604.2278
17.9100 23850.0570
17.9200 22201.1332
17.9300 20235.4410
17.9400 19632.2470
17.9500 18178.0254
17.9600 17340.0086
17.9700 16246.0114
17.9800 16184.0942
17.9900 15886.7178
18.0000 15642.6940
18.0100 16793.4032
18.0200 17506.0872
18.0300 19094.5536
18.0400 19117.2852
18.0500 20090.5578
18.0600 20912.4898
18.0700 22114.0096
18.0800 22097.9064
18.0900 22368.9352
18.1000 23254.7628
18.1100 23399.2208
18.1200 21731.1992
18.1300 20783.6284
18.1400 18102.3784
18.1500 17495.7052
18.1600 16072.8556
18.1700 14554.3294
18.1800 12946.2402
18.1900 11408.0118
18.2000 9883.0444
18.2100 9409.9894
18.2200 8870.1956
18.2300 7928.3132
18.2400 7831.7276
18.2500 7858.9492
18.2600 6929.8568
18.2700 6952.4892
18.2800 6671.3410
18.2900 6875.5060
18.3000 6696.5048
18.3100 6753.1652
18.3200 6935.0632
18.3300 6870.9192
18.3400 7328.5670
18.3500 6974.4228
18.3600 8004.7038
18.3700 7038.4648
18.3800 7138.3712
18.3900 6985.3750
18.4000 7395.4768
18.4100 7410.3236
18.4200 7855.5862
18.4300 7327.5192
18.4400 8249.5646
18.4500 8175.2146
18.4600 8648.8362
18.4700 8506.1136
18.4800 8855.6864
18.4900 9185.5316
18.5000 9517.9942
18.5100 9351.2920
18.5200 10601.6062
18.5300 10550.4018
18.5400 11789.3138
18.5500 11887.1094
18.5600 12595.7784
18.5700 13279.5726
18.5800 14895.2718
18.5900 14937.6414
18.6000 16470.7570
18.6100 16372.7162
18.6200 17693.3920
18.6300 19062.3800
18.6400 20315.8244
18.6500 20687.0524
18.6600 20833.1076
18.6700 21007.5888
18.6800 20170.0460
18.6900 19522.6440
18.7000 17562.7624
18.7100 16081.2428
18.7200 15099.3520
18.7300 13435.8398
18.7400 12149.8658
18.7500 10124.2870
18.7600 9787.0218
18.7700 8759.6344
18.7800 7889.4790
18.7900 7008.7210
18.8000 6848.1710
18.8100 6653.7892
18.8200 6126.6546
18.8300 6049.4528
18.8400 6031.6472
18.8500 6083.3736
18.8600 5588.3936
18.8700 5484.0876
18.8800 5322.0790
18.8900 5158.9722
18.9000 5224.0392
18.9100 4776.4156
18.9200 5019.9962
18.9300 5250.0596
18.9400 4974.5662
18.9500 5201.7308
18.9600 5330.9890
18.9700 5377.6672
18.9800 5121.6522
18.9900 5083.5836
19.0000 4788.2686
19.0100 4840.3448
19.0200 4832.0704
19.0300 4908.9036
19.0400 4604.4504
19.0500 4678.4998
19.0600 5714.6250
19.0700 5143.6234
19.0800 5424.3342
19.0900 4840.8936
19.1000 5285.8362
19.1100 5383.5728
19.1200 5647.6004
19.1300 4908.3348
19.1400 4749.8636
19.1500 4488.6002
19.1600 5177.4180
19.1700 4980.9968
19.1800 4941.6748
19.1900 5029.9586
19.2000 5004.7262
19.2100 5083.2066
19.2200 4935.0138
19.2300 5501.4902
19.2400 5404.5192
19.2500 5302.6194
19.2600 5428.6118
19.2700 5051.4918
19.2800 5589.5182
19.2900 5112.7400
19.3000 5104.2496
19.3100 5276.0604
19.3200 5671.1264
19.3300 5754.5094
19.3400 5587.4816
19.3500 6099.4654
19.3600 5651.0716
19.3700 6134.2916
19.3800 5858.2758
19.3900 6094.6370
19.4000 6207.0588
19.4100 6544.9386
19.4200 6227.8442
19.4300 7299.9954
19.4400 6532.9016
19.4500 6912.1164
19.4600 7547.9040
19.4700 8084.2708
19.4800 7186.1710
19.4900 8175.7370
19.5000 8108.7580
19.5100 9310.2234
19.5200 9301.0092
19.5300 9577.6092
19.5400 9945.7968
19.5500 10594.2504
19.5600 10985.1868
19.5700 10969.9850
19.5800 11869.2058
19.5900 11373.1750
19.6000 10925.9766
19.6100 11805.1402
19.6200 11091.9058
19.6300 11126.1648
19.6400 9972.1476
19.6500 9736.9832
19.6600 8258.6864
19.6700 7830.8756
19.6800 8038.5416
19.6900 6348.9568
19.7000 6079.2842
19.7100 5984.2244
19.7200 5406.4052
19.7300 6009.3410
19.7400 6229.1168
19.7500 4819.1956
19.7600 5564.6408
19.7700 5322.5378
19.7800 5223.3984
19.7900 5202.3774
19.8000 5107.2926
19.8100 5375.1898
19.8200 4885.6506
19.8300 5157.5180
19.8400 5243.6814
19.8500 4919.5220
19.8600 5682.2062
19.8700 4878.1214
19.8800 5338.2166
19.8900 5107.8100
19.9000 4836.7732
19.9100 4652.0792
19.9200 5197.1516
19.9300 5513.8616
19.9400 5544.5934
19.9500 4889.8844
19.9600 5758.1334
19.9700 5378.0722
19.9800 5546.1848
19.9900 6507.6864
20.0000 5539.9394
20.0100 5487.5406
20.0200 5842.2740
20.0300 5475.4938
20.0400 5382.5852
20.0500 5989.1536
20.0600 5833.1574
20.0700 5702.9440
20.0800 6216.2858
20.0900 6542.7032
20.1000 7069.3752
20.1100 6658.8690
20.1200 6461.9832
20.1300 6931.7546
20.1400 7864.5502
20.1500 7768.5826
20.1600 7622.5474
20.1700 7394.5252
20.1800 7644.1324
20.1900 8291.3324
20.2000 8211.0006
20.2100 8237.8636
20.2200 9150.0976
20.2300 8811.0168
20.2400 9564.4154
20.2500 9611.0768
20.2600 10551.2564
20.2700 11459.5114
20.2800 11443.4286
20.2900 12206.2276
20.3000 13411.6536
20.3100 15334.7656
20.3200 16138.5458
20.3300 17258.5796
20.3400 18933.0892
20.3500 20138.8448
20.3600 22224.3632
20.3700 23511.7594
20.3800 23389.0706
20.3900 26044.2626
20.4000 26194.7022
20.4100 24793.2678
20.4200 23218.0908
20.4300 21935.4064
20.4400 21449.7762
20.4500 18803.6804
20.4600 17182.3852
20.4700 15920.2800
20.4800 13719.6634
20.4900 10812.3504
20.5000 8888.3158
20.5100 9331.0832
20.5200 8245.6386
20.5300 7805.5048
20.5400 6900.5214
20.5500 6473.6196
20.5600 5638.1348
20.5700 5508.6172
20.5800 6217.2470
20.5900 5961.9298
20.6000 5567.9372
20.6100 5505.5202
20.6200 5557.8994
20.6300 6103.0410
20.6400 5114.9444
20.6500 4908.6486
20.6600 5312.6806
20.6700 4816.2786
20.6800 4561.1720
20.6900 5440.0782
20.7000 4777.1240
20.7100 4751.5146
20.7200 4481.5094
20.7300 4749.5006
20.7400 4980.4000
20.7500 4717.4780
20.7600 4959.0088
20.7700 4734.2260
20.7800 4690.1642
20.7900 5003.2578
20.8000 4947.5880
20.8100 4918.6936
20.8200 4631.0100
20.8300 4787.7778
20.8400 4546.8796
20.8500 4658.7296
20.8600 4823.9156
20.8700 4379.3508
20.8800 4507.6182
20.8900 4312.3800
20.9000 4599.1948
20.9100 4605.1184
20.9200 4367.3756
20.9300 4647.8898
20.9400 4009.1080
20.9500 4243.7226
20.9600 4299.3372
20.9700 4914.0162
20.9800 4958.1004
20.9900 4358.6944
21.0000 4397.2204
21.0100 4776.0732
21.0200 5138.9516
21.0300 4526.2970
21.0400 4379.9826
21.0500 4678.8828
21.0600 4754.1820
21.0700 4891.1540
21.0800 4673.4736
21.0900 4793.3518
21.1000 4862.5382
21.1100 4871.6782
21.1200 5115.7766
21.1300 5124.1924
21.1400 5858.5414
21.1500 4700.6312
21.1600 5063.0274
21.1700 4914.9506
21.1800 4780.7516
21.1900 4552.4434
21.2000 4782.1584
21.2100 4828.8086
21.2200 4923.0992
21.2300 5479.0156
21.2400 4959.8684
21.2500 4784.6248
21.2600 4936.4212
21.2700 5221.5530
21.2800 5032.3914
21.2900 4711.5662
21.3000 5482.9758
21.3100 5495.2322
21.3200 5290.6458
21.3300 5139.1414
21.3400 4757.7820
21.3500 4919.1116
21.3600 5259.3496
21.3700 5892.0822
21.3800 5714.4490
21.3900 5576.0518
21.4000 5719.8304
21.4100 5993.8552
21.4200 5626.4902
21.4300 6369.8410
21.4400 6091.1046
21.4500 6380.0756
21.4600 6034.2850
21.4700 5962.6612
21.4800 5953.6590
21.4900 6424.3190
21.5000 6624.8388
21.5100 6720.2088
21.5200 7104.4210
21.5300 7773.3272
21.5400 6970.1126
21.5500 7322.8418
21.5600 7868.0246
21.5700 8154.4906
21.5800 8070.2326
21.5900 8310.4564
21.6000 8650.8076
21.6100 8674.9664
21.6200 9240.1144
21.6300 10048.3184
21.6400 10308.2936
21.6500 10813.1154
21.6600 11409.4992
21.6700 11167.9870
21.6800 12250.6908
21.6900 12270.4112
21.7000 13356.1096
21.7100 14325.3632
21.7200 14882.3894
21.7300 16283.4218
21.7400 17043.5994
21.7500 18552.5330
21.7600 19067.1630
21.7700 21703.1066
21.7800 24357.0862
21.7900 25734.6720
21.8000 27671.5556
21.8100 31544.7246
21.8200 31769.3828
21.8300 34072.9390
21.8400 35299.6134
21.8500 35172.3226
21.8600 36050.0774
21.8700 34528.8534
21.8800 32016.4204
21.8900 28500.0082
21.9000 26025.0326
21.9100 23325.6918
21.9200 20866.1458
21.9300 18557.5684
21.9400 16190.9454
21.9500 14661.4410
21.9600 12186.0422
21.9700 10456.9438
21.9800 9494.0420
21.9900 8677.6590
22.0000 7196.5382
22.0100 7180.6616
22.0200 6476.7904
22.0300 6642.6930
22.0400 6444.0856
22.0500 6160.1370
22.0600 6208.7830
22.0700 6076.1840
22.0800 5773.0600
22.0900 5926.4872
22.1000 5700.3260
22.1100 5582.7138
22.1200 5488.7512
22.1300 4841.9582
22.1400 5066.6982
22.1500 5531.9000
22.1600 4962.4598
22.1700 5102.3402
22.1800 5361.7244
22.1900 4780.3340
22.2000 5561.1282
22.2100 5092.3386
22.2200 5192.9158
22.2300 5200.7584
22.2400 5346.6298
22.2500 5586.3022
22.2600 5195.4544
22.2700 5170.2480
22.2800 5759.3190
22.2900 5208.1492
22.3000 5870.5790
22.3100 5194.0500
22.3200 5559.0572
22.3300 5778.1514
22.3400 5797.8160
22.3500 6249.2014
22.3600 5567.1626
22.3700 6352.8728
22.3800 6661.5030
22.3900 6679.1336
22.4000 7089.5752
22.4100 6770.6532
22.4200 7035.4762
22.4300 6794.5984
22.4400 7134.7652
22.4500 6895.0444
22.4600 6305.3518
22.4700 6428.2054
22.4800 6183.3806
22.4900 6067.1788
22.5000 5893.1606
22.5100 5963.4272
22.5200 5798.4304
22.5300 5944.9122
22.5400 5252.9942
22.5500 5490.5666
22.5600 5185.7228
22.5700 5233.6386
22.5800 4811.3668
22.5900 5242.9128
22.6000 5196.9198
22.6100 5464.7868
22.6200 5089.7548
22.6300 5056.1432
22.6400 5364.4826
22.6500 5507.5450
22.6600 5001.0132
22.6700 5249.1654
22.6800 4914.5380
22.6900 5053.6336
22.7000 5215.7614
22.7100 5422.7860
22.7200 5208.2784
22.7300 5061.6140
22.7400 5310.5306
22.7500 5738.8372
22.7600 5654.3300
22.7700 5313.2776
22.7800 5982.8278
22.7900 5361.8108
22.8000 5785.7350
22.8100 6009.1740
22.8200 6003.8488
22.8300 6077.5356
22.8400 5795.7378
22.8500 5904.4850
22.8600 6004.9342
22.8700 6048.2660
22.8800 6225.0448
22.8900 6647.7122
22.9000 6398.4228
22.9100 6526.1302
22.9200 6398.9070
22.9300 6773.7732
22.9400 7030.1402
22.9500 7302.0452
22.9600 7605.1834
22.9700 8005.8898
22.9800 8596.9706
22.9900 8861.9964
23.0000 8788.6282
23.0100 8771.7478
23.0200 9229.2094
23.0300 10245.4498
23.0400 11242.5436
23.0500 11302.1424
23.0600 11513.4908
23.0700 12948.5566
23.0800 12593.5170
23.0900 13752.2308
23.1000 14642.3432
23.1100 15652.8584
23.1200 16226.6754
23.1300 17798.9054
23.1400 17493.6258
23.1500 17768.3004
23.1600 16927.3214
23.1700 17047.8118
23.1800 17002.3356
23.1900 15958.9702
23.2000 15568.1834
23.2100 14858.3578
23.2200 13809.0984
23.2300 12780.5756
23.2400 12362.9914
23.2500 10736.2570
23.2600 9761.4686
23.2700 8791.3890
23.2800 9060.0362
23.2900 8316.1220
23.3000 7541.4912
23.3100 7198.4650
23.3200 7456.8584
23.3300 6656.2938
23.3400 6209.4300
23.3500 6583.2444
23.3600 6384.0316
23.3700 6032.3868
23.3800 6004.1610
23.3900 6379.1844
23.4000 6354.8970
23.4100 6050.6998
23.4200 6613.5000
23.4300 6057.7454
23.4400 6629.3366
23.4500 6835.3252
23.4600 7106.9402
23.4700 6947.6760
23.4800 7098.3006
23.4900 7043.5048
23.5000 7059.9534
23.5100 6935.4314
23.5200 6983.3074
23.5300 7055.2084
23.5400 7814.8240
23.5500 7411.1470
23.5600 7999.7890
23.5700 7817.1026
23.5800 8344.9010
23.5900 8548.0174
23.6000 8433.4650
23.6100 9189.3240
23.6200 9581.4748
23.6300 10096.6674
23.6400 10267.2008
23.6500 10254.8726
23.6600 11663.6190
23.6700 11809.9894
23.6800 11893.7602
23.6900 12381.2796
23.7000 12835.1816
23.7100 12984.1552
23.7200 13773.3428
23.7300 13466.1042
23.7400 13545.4346
23.7500 13937.5976
23.7600 13702.2766
23.7700 14182.0678
23.7800 14913.0646
23.7900 14760.9508
23.8000 16112.3270
23.8100 16320.0124
23.8200 18203.4038
23.8300 18232.4300
23.8400 19260.2722
23.8500 20609.7270
23.8600 21863.4278
23.8700 23845.1132
23.8800 25527.0834
23.8900 27214.5894
23.9000 30070.0928
23.9100 31448.2482
23.9200 32606.4086
23.9300 36656.5512
23.9400 36711.5600
23.9500 37265.7268
23.9600 39211.9588
23.9700 38765.4460
23.9800 39581.3028
23.9900 38127.3234
24.0000 37652.0590
24.0100 36465.9750
24.0200 35668.4488
24.0300 32528.3060
24.0400 31747.6196
24.0500 29650.2604
24.0600 27861.0820
24.0700 25202.0752
24.0800 23825.8748
24.0900 20502.0386
24.1000 19977.7506
24.1100 18155.5440
24.1200 16796.8140
24.1300 15796.0418
24.1400 15045.8354
24.1500 13583.2490
24.1600 13599.5952
24.1700 13554.4668
24.1800 12949.4944
24.1900 12824.1456
24.2000 12651.4872
24.2100 13295.4570
24.2200 12761.5998
24.2300 13644.9554
24.2400 15579.1118
24.2500 14826.8748
24.2600 15780.0638
24.2700 17169.9890
24.2800 18007.2794
24.2900 18932.2124
24.3000 21521.4070
24.3100 22268.2596
24.3200 22875.4862
24.3300 24431.3538
24.3400 25046.2870
24.3500 25798.9664
24.3600 26983.3862
24.3700 26187.1094
24.3800 26613.4624
24.3900 26833.6446
24.4000 26583.2968
24.4100 24628.1942
24.4200 24537.0138
24.4300 23006.6162
24.4400 22289.9800
24.4500 20225.5962
24.4600 20492.9300
24.4700 19066.9270
24.4800 17540.6902
24.4900 16016.5812
24.5000 16789.6026
24.5100 16003.0568
24.5200 15375.8148
24.5300 15586.5926
24.5400 15193.3054
24.5500 15513.3840
24.5600 16217.2658
24.5700 16405.8788
24.5800 16742.4246
24.5900 18108.0342
24.6000 17563.4746
24.6100 20254.9744
24.6200 20363.8488
24.6300 21140.1978
24.6400 21924.1902
24.6500 22329.9358
24.6600 24482.8084
24.6700 24465.2894
24.6800 27340.6902
24.6900 27791.7786
24.7000 27531.3904
24.7100 28588.5518
24.7200 30275.6144
24.7300 31631.2154
24.7400 32104.2216
24.7500 34052.9744
24.7600 35867.8996
24.7700 38220.4060
24.7800 40263.5132
24.7900 43750.6510
24.8000 45244.1366
24.8100 48794.1528
24.8200 52262.1826
24.8300 55114.9048
24.8400 55703.1006
24.8500 56505.0090
24.8600 60203.7598
24.8700 58834.4930
24.8800 56080.9000
24.8900 54367.9484
24.9000 50278.1332
24.9100 49540.9138
24.9200 46089.3840
24.9300 42433.0852
24.9400 39497.9532
24.9500 37633.1096
24.9600 34544.2058
24.9700 33631.5898
24.9800 30720.7458
24.9900 28743.2150
25.0000 28583.7342
25.0100 29301.8392
25.0200 29096.2544
25.0300 28537.0728
25.0400 29835.9742
25.0500 31432.4484
25.0600 32966.1804
25.0700 34642.0694
25.0800 35761.1368
25.0900 37555.1840
25.1000 39939.8316
25.1100 43104.8136
25.1200 44269.9544
25.1300 48727.5634
25.1400 51681.4086
25.1500 54689.0828
25.1600 61603.0110
25.1700 66536.9548
25.1800 72815.2100
25.1900 80753.4912
25.2000 86810.9782
25.2100 97687.1582
25.2200 109773.2340
25.2300 122836.3606
25.2400 134980.0862
25.2500 149496.1264
25.2600 159889.2578
25.2700 172369.5150
25.2800 179228.8412
25.2900 186771.8262
25.3000 186360.6120
25.3100 183797.4122
25.3200 180150.3092
25.3300 168110.9374
25.3400 154449.0722
25.3500 138042.3828
25.3600 125812.2314
25.3700 104714.7868
25.3800 95013.7858
25.3900 83399.8128
25.4000 70300.3336
25.4100 58695.7072
25.4200 48949.8902
25.4300 41253.5482
25.4400 35496.9930
25.4500 31561.7188
25.4600 26716.1744
25.4700 23454.4068
25.4800 22747.6582
25.4900 21736.6882
25.5000 20455.8838
25.5100 19381.6406
25.5200 19179.3986
25.5300 18468.1762
25.5400 18664.2782
25.5500 17773.6368
25.5600 18999.3348
25.5700 19690.4948
25.5800 19186.2244
25.5900 19926.7008
25.6000 19644.6940
25.6100 21071.1670
25.6200 20822.0458
25.6300 22595.4772
25.6400 23231.0038
25.6500 22942.2688
25.6600 26337.4594
25.6700 27539.4816
25.6800 29086.5906
25.6900 31037.9904
25.7000 35011.0148
25.7100 36779.7404
25.7200 41525.4150
25.7300 45321.6350
25.7400 48430.6070
25.7500 51781.8196
25.7600 57875.0854
25.7700 61088.1144
25.7800 63402.9052
25.7900 64492.8710
25.8000 67423.1120
25.8100 64558.6874
25.8200 62884.3180
25.8300 59887.3210
25.8400 55209.0210
25.8500 50076.7700
25.8600 46258.5774
25.8700 41400.0774
25.8800 38005.8756
25.8900 31822.9188
25.9000 27377.8706
25.9100 23748.5962
25.9200 20683.9518
25.9300 17129.6610
25.9400 14868.9016
25.9500 13170.6574
25.9600 11779.5918
25.9700 11607.3802
25.9800 10555.8624
25.9900 10728.2084
26.0000 10422.2128
26.0100 10212.3260
26.0200 9595.7336
26.0300 9086.2570
26.0400 9208.6030
26.0500 8795.9646
26.0600 8596.1274
26.0700 8193.9672
26.0800 7857.7622
26.0900 7682.0388
26.1000 7358.4168
26.1100 8147.7906
26.1200 7411.9680
26.1300 6783.0882
26.1400 6859.9344
26.1500 7475.7854
26.1600 6788.0182
26.1700 7114.0168
26.1800 7093.3110
26.1900 6978.6376
26.2000 6601.4226
26.2100 6375.4124
26.2200 6700.9242
26.2300 6856.0074
26.2400 5993.3156
26.2500 6583.5440
26.2600 6539.7654
26.2700 7392.9596
26.2800 6629.2358
26.2900 6372.2844
26.3000 6210.5378
26.3100 6384.3282
26.3200 6341.7278
26.3300 6424.0870
26.3400 6432.4524
26.3500 5992.4734
26.3600 6211.6512
26.3700 6798.5144
26.3800 6146.8496
26.3900 6315.0812
26.4000 6040.4708
26.4100 5682.1472
26.4200 5796.2010
26.4300 6189.4028
26.4400 6298.7894
26.4500 6302.1032
26.4600 6290.8260
26.4700 6456.1972
26.4800 6298.8526
26.4900 6366.6000
26.5000 6239.3290
26.5100 6363.9542
26.5200 6110.2096
26.5300 6730.8644
26.5400 6077.9622
26.5500 6304.9814
26.5600 6349.9776
26.5700 5814.9444
26.5800 6022.2630
26.5900 5657.6040
26.6000 5972.0728
26.6100 6452.5568
26.6200 5983.9106
26.6300 6095.5816
26.6400 6007.9264
26.6500 5787.1454
26.6600 6449.2610
26.6700 6217.9780
26.6800 5984.5494
26.6900 5802.7924
26.7000 5703.3692
26.7100 5989.9094
26.7200 5810.4330
26.7300 6464.2288
26.7400 5887.1928
26.7500 5724.2152
26.7600 6142.4180
26.7700 6189.5156
26.7800 5458.4106
26.7900 5641.3778
26.8000 6292.7938
26.8100 6104.8034
26.8200 6152.2654
26.8300 6168.7562
26.8400 6327.8630
26.8500 5891.5838
26.8600 6502.0900
26.8700 5946.6604
26.8800 5823.8760
26.8900 5988.1332
26.9000 6463.4236
26.9100 6911.5066
26.9200 6174.1734
26.9300 6851.9078
26.9400 6640.7720
26.9500 6703.1490
26.9600 6903.8392
26.9700 6835.5286
26.9800 6803.2246
26.9900 6677.2116
27.0000 6664.8122
27.0100 6536.4192
27.0200 6069.8706
27.0300 6622.4568
27.0400 6512.4476
27.0500 7108.0308
27.0600 7178.3590
27.0700 7599.5642
27.0800 7298.4196
27.0900 7085.5402
27.1000 8106.5394
27.1100 7972.9950
27.1200 7374.3220
27.1300 7219.6310
27.1400 7986.7502
27.1500 8339.5284
27.1600 7829.2414
27.1700 8477.9038
27.1800 8718.9676
27.1900 8393.1594
27.2000 8936.5276
27.2100 9154.6102
27.2200 8762.9710
27.2300 10134.6394
27.2400 10592.7490
27.2500 10880.3304
27.2600 10871.6228
27.2700 11246.3318
27.2800 11816.0442
27.2900 11341.6464
27.3000 11980.1880
27.3100 12041.7144
27.3200 12531.0058
27.3300 13334.0780
27.3400 13883.9814
27.3500 14628.4250
27.3600 15399.9928
27.3700 15307.7280
27.3800 16968.9118
27.3900 16927.9418
27.4000 16948.3388
27.4100 17267.6372
27.4200 16932.1970
27.4300 17571.9360
27.4400 17530.1840
27.4500 17074.2838
27.4600 16743.9616
27.4700 18004.5918
27.4800 19009.7636
27.4900 18051.7618
27.5000 19041.3492
27.5100 19789.4776
27.5200 21349.1028
27.5300 20945.9594
27.5400 22040.2058
27.5500 23494.0022
27.5600 24033.4148
27.5700 23913.3382
27.5800 24005.4362
27.5900 24823.9074
27.6000 24029.6408
27.6100 23527.8768
27.6200 21979.7200
27.6300 20628.0640
27.6400 18712.8724
27.6500 18785.4004
27.6600 16322.6268
27.6700 15779.9358
27.6800 14642.0694
27.6900 14611.5732
27.7000 12580.8614
27.7100 12395.6950
27.7200 12055.7994
27.7300 12190.3056
27.7400 11957.7332
27.7500 12169.0612
27.7600 12071.8506
27.7700 12532.4350
27.7800 11940.9718
27.7900 12602.3174
27.8000 12820.9900
27.8100 13773.7936
27.8200 14378.2858
27.8300 13221.3990
27.8400 15474.4466
27.8500 16572.7122
27.8600 16445.4854
27.8700 17552.1362
27.8800 19027.8952
27.8900 20485.9944
27.9000 21825.2584
27.9100 22787.3372
27.9200 25138.8366
27.9300 28316.0074
27.9400 30330.3732
27.9500 33539.7460
27.9600 33832.8104
27.9700 36620.0196
27.9800 39187.6342
27.9900 42814.5100
28.0000 43721.2646
28.0100 45358.7280
28.0200 45417.1590
28.0300 46529.1016
28.0400 44940.8570
28.0500 44454.2724
28.0600 44524.5036
28.0700 41149.3896
28.0800 41141.3696
28.0900 36487.1786
28.1000 33081.2094
28.1100 29936.5946
28.1200 27915.0228
28.1300 24710.8378
28.1400 22304.1016
28.1500 19717.1408
28.1600 17857.5888
28.1700 15849.6510
28.1800 13937.5254
28.1900 12517.6056
28.2000 11930.3498
28.2100 10770.2982
28.2200 10134.7606
28.2300 9184.5856
28.2400 8965.7736
28.2500 8637.0494
28.2600 7962.2320
28.2700 7782.9274
28.2800 7242.0486
28.2900 7222.9410
28.3000 6949.5208
28.3100 6246.4234
28.3200 6848.4070
28.3300 6254.9748
28.3400 6117.0660
28.3500 6658.7046
28.3600 5963.4582
28.3700 6319.6172
28.3800 6333.2296
28.3900 5696.8878
28.4000 6176.6560
28.4100 6131.2556
28.4200 6385.2656
28.4300 6113.1572
28.4400 6116.3152
28.4500 6806.0496
28.4600 6239.6214
28.4700 5504.6590
28.4800 6464.3834
28.4900 6367.1204
28.5000 5845.8582
28.5100 6566.4734
28.5200 6501.2706
28.5300 6814.8284
28.5400 6157.7234
28.5500 6757.2154
28.5600 6162.4374
28.5700 5615.4230
28.5800 6490.5060
28.5900 6449.3052
28.6000 6725.0000
28.6100 6212.2742
28.6200 6630.6976
28.6300 6641.9784
28.6400 6782.4844
28.6500 7116.6616
28.6600 6622.0912
28.6700 7098.2280
28.6800 7107.0978
28.6900 7334.1818
28.7000 7518.2328
28.7100 7903.9148
28.7200 7725.5692
28.7300 7987.4394
28.7400 8051.8774
28.7500 7927.2384
28.7600 8735.5712
28.7700 8077.8534
28.7800 8669.4366
28.7900 9333.0658
28.8000 9758.3568
28.8100 9704.3914
28.8200 10476.1576
28.8300 10562.3636
28.8400 11569.4488
28.8500 11900.2980
28.8600 12836.4562
28.8700 13308.0078
28.8800 14359.3476
28.8900 15061.5712
28.9000 15291.1448
28.9100 16562.7512
28.9200 17087.6628
28.9300 16604.5858
28.9400 17391.4164
28.9500 17573.2768
28.9600 17465.3728
28.9700 16668.5720
28.9800 15247.0826
28.9900 14890.4552
29.0000 13444.2088
29.0100 14288.9008
29.0200 12993.8386
29.0300 11368.6238
29.0400 10999.7132
29.0500 10274.0152
29.0600 9824.7528
29.0700 9013.6830
29.0800 8385.2484
29.0900 7639.0824
29.1000 7203.2536
29.1100 7309.7942
29.1200 6662.3774
29.1300 7703.1270
29.1400 7411.4116
29.1500 7238.6002
29.1600 7357.2866
29.1700 7831.8120
29.1800 6659.9136
29.1900 7437.6196
29.2000 7252.9740
29.2100 7020.5964
29.2200 7721.4502
29.2300 7604.8696
29.2400 7045.0744
29.2500 7178.1800
29.2600 8108.0952
29.2700 7155.7840
29.2800 7087.2620
29.2900 7431.3196
29.3000 7097.3220
29.3100 6633.6050
29.3200 7180.4464
29.3300 6709.2508
29.3400 7589.4038
29.3500 7553.2588
29.3600 6469.6624
29.3700 7028.2506
29.3800 7591.0940
29.3900 6871.4656
29.4000 7072.1822
29.4100 7417.6580
29.4200 7040.7318
29.4300 7660.4442
29.4400 8016.6244
29.4500 7953.7948
29.4600 8365.5330
29.4700 8574.0570
29.4800 8968.9676
29.4900 8712.1878
29.5000 9078.1464
29.5100 9461.8520
29.5200 9395.5414
29.5300 10296.0072
29.5400 10453.7272
29.5500 10413.5326
29.5600 11731.0190
29.5700 12601.0142
29.5800 13250.2828
29.5900 13233.9458
29.6000 14369.3838
29.6100 15327.5900
29.6200 17049.8596
29.6300 18118.2088
29.6400 18068.7724
29.6500 18443.1580
29.6600 20727.5268
29.6700 20258.3190
29.6800 22481.7688
29.6900 21938.2364
29.7000 22671.7632
29.7100 22899.7334
29.7200 21846.9482
29.7300 21631.4188
29.7400 22558.1970
29.7500 21263.4684
29.7600 21013.3382
29.7700 22135.5286
29.7800 22073.0550
29.7900 20991.5752
29.8000 21767.1142
29.8100 22303.7334
29.8200 22970.2800
29.8300 22443.4998
29.8400 23811.3016
29.8500 25172.6196
29.8600 26094.0958
29.8700 26770.3858
29.8800 25904.4414
29.8900 25423.2992
29.9000 25605.3732
29.9100 24641.5812
29.9200 25050.8138
29.9300 22178.9408
29.9400 21640.8488
29.9500 19696.1018
29.9600 19356.0934
29.9700 17734.6680
29.9800 17336.4136
29.9900 15545.6116
30.0000 14134.7514
30.0100 12557.3650
30.0200 11771.4772
30.0300 10919.5098
30.0400 9290.3320
30.0500 8620.1986
30.0600 8718.9382
30.0700 8620.3532
30.0800 8026.0432
30.0900 7498.6054
30.1000 7176.9028
30.1100 7754.7888
30.1200 6439.4018
30.1300 6384.7036
30.1400 6341.8686
30.1500 6532.4748
30.1600 6689.2400
30.1700 6458.6710
30.1800 6207.3842
30.1900 6314.3600
30.2000 6440.3758
30.2100 6048.1202
30.2200 5986.9828
30.2300 5670.2646
30.2400 6374.1166
30.2500 5869.1996
30.2600 5669.7556
30.2700 5695.4138
30.2800 5562.8968
30.2900 5770.1564
30.3000 5722.5576
30.3100 5475.6328
30.3200 5444.5608
30.3300 5572.4604
30.3400 6252.7634
30.3500 5444.2672
30.3600 5830.5944
30.3700 6055.7704
30.3800 6041.3010
30.3900 5748.3796
30.4000 6283.8994
30.4100 5920.3024
30.4200 5742.0380
30.4300 6283.1894
30.4400 6592.6422
30.4500 6237.9480
30.4600 6526.6460
30.4700 6632.1534
30.4800 6994.1202
30.4900 7431.4286
30.5000 7052.4464
30.5100 6665.9170
30.5200 6652.4938
30.5300 7198.5886
30.5400 7332.7388
30.5500 7033.8068
30.5600 7064.0416
30.5700 6622.1278
30.5800 6840.2516
30.5900 6905.6248
30.6000 6859.1482
30.6100 6680.6416
30.6200 6818.1070
30.6300 6310.5834
30.6400 6519.4346
30.6500 6166.1432
30.6600 6527.4694
30.6700 6571.7748
30.6800 7026.2166
30.6900 5974.0652
30.7000 6173.4374
30.7100 6238.6194
30.7200 6816.5060
30.7300 6718.5562
30.7400 6850.7308
30.7500 6511.5550
30.7600 6897.4202
30.7700 7162.6424
30.7800 7304.7780
30.7900 7177.0202
30.8000 7720.3410
30.8100 7216.4128
30.8200 7579.2388
30.8300 7791.2928
30.8400 6887.5774
30.8500 7710.4812
30.8600 7321.8734
30.8700 7740.6138
30.8800 8188.3484
30.8900 6997.0372
30.9000 6700.4690
30.9100 6785.3240
30.9200 6989.1306
30.9300 6654.0146
30.9400 6917.4464
30.9500 7177.9530
30.9600 6686.8916
30.9700 6943.8660
30.9800 6396.2962
30.9900 6914.3854
31.0000 6723.3764
31.0100 6464.7196
31.0200 6537.9064
31.0300 6593.1168
31.0400 6308.9178
31.0500 6327.2858
31.0600 6980.1026
31.0700 7415.3488
31.0800 7156.0846
31.0900 7019.3018
31.1000 7377.2104
31.1100 8201.2954
31.1200 8300.2334
31.1300 8431.3060
31.1400 8666.8458
31.1500 8692.7420
31.1600 8801.9256
31.1700 8622.8262
31.1800 8866.3350
31.1900 9127.5238
31.2000 10451.3366
31.2100 9826.0884
31.2200 11043.3868
31.2300 12001.2818
31.2400 11740.5344
31.2500 13265.8824
31.2600 13864.2506
31.2700 14901.6398
31.2800 15767.9382
31.2900 16960.0992
31.3000 16939.5670
31.3100 18077.0040
31.3200 18966.3066
31.3300 19257.2368
31.3400 19640.6290
31.3500 21016.6666
31.3600 21424.7274
31.3700 22623.3032
31.3800 23034.0170
31.3900 23952.8584
31.4000 25964.1480
31.4100 26652.0630
31.4200 26829.8828
31.4300 28508.9884
31.4400 32027.1036
31.4500 33184.5968
31.4600 35482.4788
31.4700 37205.0618
31.4800 40337.1134
31.4900 42769.8404
31.5000 45824.1374
31.5100 47056.6528
31.5200 50470.2922
31.5300 53620.9310
31.5400 57408.8868
31.5500 60165.6616
31.5600 63117.7490
31.5700 64082.8124
31.5800 65024.4262
31.5900 66059.7860
31.6000 65446.1304
31.6100 65128.3082
31.6200 62196.7488
31.6300 58937.8092
31.6400 54989.8072
31.6500 51888.9608
31.6600 48211.8694
31.6700 42306.9254
31.6800 39399.7600
31.6900 35893.5262
31.7000 34029.8442
31.7100 29377.8828
31.7200 26624.4038
31.7300 22623.0692
31.7400 20440.8916
31.7500 18614.3636
31.7600 15618.6462
31.7700 14999.9562
31.7800 14047.3094
31.7900 12459.8388
31.8000 11915.5670
31.8100 11777.2472
31.8200 10761.9476
31.8300 10439.6566
31.8400 10502.0468
31.8500 9504.4180
31.8600 10052.4750
31.8700 9423.0886
31.8800 9771.4692
31.8900 8480.7226
31.9000 9321.7438
31.9100 9249.5118
31.9200 9120.6960
31.9300 9171.1264
31.9400 9818.8618
31.9500 10099.9838
31.9600 9811.5122
31.9700 10485.9812
31.9800 10900.7344
31.9900 10723.8668
32.0000 11328.6478
32.0100 12462.0596
32.0200 13117.6198
32.0300 13500.3378
32.0400 14933.2744
32.0500 15709.9914
32.0600 15786.5296
32.0700 15618.2282
32.0800 15777.6672
32.0900 15934.2560
32.1000 14787.8946
32.1100 14301.8698
32.1200 14119.8170
32.1300 13783.5958
32.1400 12301.9154
32.1500 12769.2800
32.1600 12029.9784
32.1700 10974.8556
32.1800 10708.5114
32.1900 9589.7512
32.2000 8950.4222
32.2100 8533.0480
32.2200 7154.9932
32.2300 7776.7472
32.2400 7155.8126
32.2500 6821.1944
32.2600 6333.7168
32.2700 6468.6280
32.2800 6252.2390
32.2900 6036.7768
32.3000 6081.1574
32.3100 5782.9330
32.3200 5905.7352
32.3300 5917.1840
32.3400 5018.4464
32.3500 5561.3622
32.3600 5275.4842
32.3700 5997.1278
32.3800 5674.1592
32.3900 6389.9770
32.4000 5878.5126
32.4100 5477.3428
32.4200 5460.4544
32.4300 5561.1048
32.4400 5148.3780
32.4500 5447.2218
32.4600 5312.7254
32.4700 5468.5928
32.4800 5442.5238
32.4900 5433.3792
32.5000 5114.3046
32.5100 5334.4492
32.5200 5864.3854
32.5300 5748.9730
32.5400 5584.8154
32.5500 5233.9778
32.5600 5822.8842
32.5700 5659.1832
32.5800 5884.2738
32.5900 6027.7160
32.6000 5938.1760
32.6100 5702.3290
32.6200 5704.5282
32.6300 5741.1860
32.6400 5856.7398
32.6500 6032.6366
32.6600 6047.6324
32.6700 5621.3364
32.6800 5608.9122
32.6900 5858.5796
32.7000 6180.0120
32.7100 6350.2442
32.7200 6428.9928
32.7300 6802.0924
32.7400 7091.9296
32.7500 6550.1286
32.7600 6823.9980
32.7700 6577.0182
32.7800 7219.5928
32.7900 7143.0776
32.8000 7716.2262
32.8100 7700.6470
32.8200 8431.2216
32.8300 7999.9384
32.8400 8025.3876
32.8500 8302.1438
32.8600 8845.1100
32.8700 8606.8482
32.8800 8738.5650
32.8900 8531.0558
32.9000 8887.7634
32.9100 8749.1852
32.9200 7926.2166
32.9300 8523.7198
32.9400 7899.5956
32.9500 7827.8606
32.9600 7639.1398
32.9700 7181.9152
32.9800 6740.5284
32.9900 6650.5224
33.0000 7217.6920
33.0100 6703.5650
33.0200 6550.5310
33.0300 6781.6182
33.0400 6393.5714
33.0500 5954.1112
33.0600 5565.6448
33.0700 5808.2804
33.0800 5606.9224
33.0900 5614.1358
33.1000 5756.1492
33.1100 5382.4386
33.1200 6043.0608
33.1300 5473.4822
33.1400 5881.9966
33.1500 5952.4246
33.1600 5415.6550
33.1700 5270.5806
33.1800 5947.4660
33.1900 5990.6112
33.2000 5834.0718
33.2100 6046.5276
33.2200 5934.6868
33.2300 5753.8244
33.2400 5553.4038
33.2500 6139.4602
33.2600 6134.0942
33.2700 7165.8442
33.2800 6901.0326
33.2900 6718.4728
33.3000 7106.8360
33.3100 7851.0610
33.3200 7467.6804
33.3300 7451.5544
33.3400 7910.6334
33.3500 8105.7622
33.3600 7885.5122
33.3700 8421.6162
33.3800 8200.7874
33.3900 8427.6220
33.4000 8435.7936
33.4100 7892.6554
33.4200 7887.4384
33.4300 7724.4370
33.4400 7632.3212
33.4500 7342.4434
33.4600 7294.1930
33.4700 7031.4310
33.4800 7473.7020
33.4900 7232.5632
33.5000 7293.3752
33.5100 7268.4942
33.5200 7204.0344
33.5300 8052.4776
33.5400 7321.8572
33.5500 7599.8042
33.5600 7618.3884
33.5700 7536.2874
33.5800 7620.1584
33.5900 7310.0560
33.6000 8249.7610
33.6100 7911.9126
33.6200 7778.0198
33.6300 7861.3118
33.6400 8454.5944
33.6500 7687.4294
33.6600 6873.1990
33.6700 7301.9424
33.6800 7777.1072
33.6900 8111.7290
33.7000 7372.1370
33.7100 7066.9556
33.7200 6655.8914
33.7300 7264.3504
33.7400 7233.6380
33.7500 7685.0210
33.7600 6903.2068
33.7700 7043.4860
33.7800 6562.7818
33.7900 6681.1228
33.8000 6870.8506
33.8100 6905.4256
33.8200 7111.7894
33.8300 5870.5552
33.8400 6440.6586
33.8500 6491.0848
33.8600 6553.6214
33.8700 6248.2290
33.8800 6537.8412
33.8900 6287.2890
33.9000 6027.7492
33.9100 6308.6386
33.9200 7019.0928
33.9300 6493.3644
33.9400 6149.3998
33.9500 5961.4858
33.9600 5891.3228
33.9700 5984.1964
33.9800 6226.8250
33.9900 6289.3810
34.0000 6095.1176
34.0100 5987.7528
34.0200 6230.5272
34.0300 6006.4300
34.0400 6085.3968
34.0500 6762.4720
34.0600 6928.6184
34.0700 6759.9564
34.0800 7019.4646
34.0900 6867.8610
34.1000 7292.7074
34.1100 7266.5506
34.1200 7404.4296
34.1300 7929.3742
34.1400 7905.1478
34.1500 7819.0984
34.1600 7456.9432
34.1700 8481.7516
34.1800 9606.0434
34.1900 9144.8740
34.2000 9897.2636
34.2100 11204.4464
34.2200 11336.7168
34.2300 12026.6062
34.2400 11235.5378
34.2500 12732.0576
34.2600 12710.8918
34.2700 12665.1174
34.2800 13020.8720
34.2900 12415.0228
34.3000 11935.9232
34.3100 11932.8816
34.3200 11961.0016
34.3300 10945.5434
34.3400 11940.2394
34.3500 10534.0972
34.3600 11594.5344
34.3700 12147.7316
34.3800 11545.0888
34.3900 11193.7450
34.4000 11319.0226
34.4100 10932.9976
34.4200 11445.2596
34.4300 12353.0152
34.4400 13700.9868
34.4500 13511.7066
34.4600 14548.1242
34.4700 14939.2050
34.4800 15788.2324
34.4900 16040.9414
34.5000 16967.9494
34.5100 16392.3594
34.5200 18074.4730
34.5300 18104.7262
34.5400 18329.1300
34.5500 18158.4248
34.5600 18587.6668
34.5700 19115.9240
34.5800 19336.3180
34.5900 20199.3226
34.6000 20227.0732
34.6100 21341.6464
34.6200 22137.2762
34.6300 23393.3166
34.6400 22461.1836
34.6500 22900.4008
34.6600 23971.2382
34.6700 24295.2474
34.6800 25819.2160
34.6900 24407.9610
34.7000 25577.4902
34.7100 25868.6828
34.7200 25452.8788
34.7300 26672.0214
34.7400 25877.1240
34.7500 24691.4450
34.7600 23756.6324
34.7700 23708.0526
34.7800 23584.0902
34.7900 22109.3506
34.8000 23429.4514
34.8100 23195.2820
34.8200 22405.5114
34.8300 22976.5422
34.8400 23578.0578
34.8500 23771.0510
34.8600 26031.6060
34.8700 26596.4600
34.8800 28675.9502
34.8900 30606.0770
34.9000 34195.8496
34.9100 33544.1366
34.9200 35828.3610
34.9300 38886.5926
34.9400 41438.2690
34.9500 41695.5078
34.9600 44238.3504
34.9700 45215.3646
34.9800 46221.2158
34.9900 46660.4248
35.0000 45106.5308
35.0100 43578.3244
35.0200 44696.3256
35.0300 43425.8912
35.0400 42128.9306
35.0500 41374.8372
35.0600 38270.5892
35.0700 38054.4922
35.0800 36350.9970
35.0900 34977.1158
35.1000 32327.3824
35.1100 30510.1990
35.1200 28298.5006
35.1300 25695.4386
35.1400 23513.5112
35.1500 24292.5516
35.1600 23901.5524
35.1700 22244.4824
35.1800 21563.4338
35.1900 20336.8958
35.2000 20786.9284
35.2100 18807.8960
35.2200 16728.8656
35.2300 16816.0552
35.2400 16409.2122
35.2500 15399.0876
35.2600 14346.2688
35.2700 13584.1472
35.2800 12986.9416
35.2900 11612.6332
35.3000 11353.5472
35.3100 11103.2348
35.3200 11083.7768
35.3300 10306.0090
35.3400 9397.8740
35.3500 9144.8374
35.3600 7871.8210
35.3700 8144.3050
35.3800 8106.7820
35.3900 7453.3336
35.4000 6799.9638
35.4100 6588.3408
35.4200 6514.1500
35.4300 6353.0208
35.4400 6844.1940
35.4500 6962.1322
35.4600 5992.0644
35.4700 6225.7630
35.4800 5985.3856
35.4900 6100.1856
35.5000 6151.5946
35.5100 5626.6978
35.5200 5825.4878
35.5300 5507.6100
35.5400 5612.7894
35.5500 5343.4850
35.5600 5343.0770
35.5700 5267.9112
35.5800 5832.6176
35.5900 5398.2218
35.6000 5937.3112
35.6100 5737.2610
35.6200 6015.3416
35.6300 6005.1082
35.6400 5667.6564
35.6500 6063.2340
35.6600 5949.6770
35.6700 5877.7914
35.6800 6024.6912
35.6900 5839.1566
35.7000 6197.8806
35.7100 5816.9902
35.7200 6288.6938
35.7300 5589.6606
35.7400 6043.5522
35.7500 6321.0744
35.7600 6766.7532
35.7700 6970.6202
35.7800 6628.2236
35.7900 6857.7616
35.8000 6970.0988
35.8100 7493.4066
35.8200 7210.4588
35.8300 7204.3936
35.8400 7229.5130
35.8500 7052.1022
35.8600 7509.2254
35.8700 7471.4680
35.8800 6895.5286
35.8900 7002.2964
35.9000 7805.4098
35.9100 7905.1336
35.9200 7100.7654
35.9300 7071.2484
35.9400 6371.8958
35.9500 6390.7516
35.9600 6920.8700
35.9700 7190.1540
35.9800 6845.6218
35.9900 6673.8918
36.0000 5912.7452
36.0100 6126.2578
36.0200 6568.8670
36.0300 6289.5376
36.0400 6154.0700
36.0500 5953.4596
36.0600 6282.5516
36.0700 6184.3510
36.0800 5948.2900
36.0900 6112.3560
36.1000 6918.3278
36.1100 6592.8054
36.1200 6801.1698
36.1300 6425.0422
36.1400 6975.7222
36.1500 6998.5662
36.1600 7112.0000
36.1700 7673.2818
36.1800 7549.8770
36.1900 7424.7278
36.2000 7367.1804
36.2100 7721.7508
36.2200 8833.1950
36.2300 8765.0268
36.2400 9138.7828
36.2500 9427.7994
36.2600 9690.2058
36.2700 11240.2894
36.2800 10980.9286
36.2900 11106.9428
36.3000 12323.4050
36.3100 13118.5486
36.3200 13391.2466
36.3300 13149.6410
36.3400 13541.7582
36.3500 13772.4254
36.3600 14451.8676
36.3700 14182.5856
36.3800 14200.5778
36.3900 14902.9612
36.4000 15170.7856
36.4100 15594.0338
36.4200 15484.0576
36.4300 15194.8090
36.4400 16527.7028
36.4500 15488.7512
36.4600 14931.0456
36.4700 15052.1434
36.4800 14571.4274
36.4900 14653.9082
36.5000 14594.3238
36.5100 15134.6018
36.5200 14625.2920
36.5300 14634.3200
36.5400 15651.2696
36.5500 15265.4826
36.5600 15288.2334
36.5700 15147.8790
36.5800 14907.3028
36.5900 14677.0030
36.6000 13121.6828
36.6100 13788.0646
36.6200 12530.2318
36.6300 12368.6360
36.6400 11676.0834
36.6500 10479.7394
36.6600 10782.4484
36.6700 10114.7146
36.6800 10443.8324
36.6900 9906.4066
36.7000 9840.0686
36.7100 9440.4948
36.7200 9436.5976
36.7300 9022.5402
36.7400 8398.3612
36.7500 8751.6592
36.7600 8366.7826
36.7700 8354.4642
36.7800 8371.0362
36.7900 7724.0982
36.8000 8468.0954
36.8100 7675.8230
36.8200 7665.4642
36.8300 7703.7796
36.8400 7836.9426
36.8500 7774.9048
36.8600 7724.0204
36.8700 6880.2998
36.8800 7625.3668
36.8900 7265.5574
36.9000 6711.4542
36.9100 6819.5038
36.9200 6581.0190
36.9300 6437.9202
36.9400 6649.4568
36.9500 6415.8244
36.9600 6470.5708
36.9700 5905.6372
36.9800 6625.1628
36.9900 5721.2072
37.0000 7011.6266
37.0100 6148.3510
37.0200 6199.7818
37.0300 6803.7612
37.0400 6519.3054
37.0500 6555.2318
37.0600 6854.9306
37.0700 6906.4336
37.0800 6372.8418
37.0900 6662.2070
37.1000 6753.8258
37.1100 6985.7406
37.1200 7268.2118
37.1300 7619.7668
37.1400 8725.5218
37.1500 9026.6266
37.1600 9428.1066
37.1700 9345.7102
37.1800 9881.2572
37.1900 10351.2502
37.2000 10230.9844
37.2100 11443.7684
37.2200 11382.4340
37.2300 11476.1414
37.2400 11824.6134
37.2500 11756.4728
37.2600 11142.5924
37.2700 12130.4972
37.2800 11623.6216
37.2900 11275.1740
37.3000 10506.8502
37.3100 10231.6712
37.3200 10029.4606
37.3300 9492.9840
37.3400 9835.5042
37.3500 8848.9268
37.3600 8980.9356
37.3700 8570.0338
37.3800 8224.0270
37.3900 7732.3542
37.4000 7826.4790
37.4100 7618.2094
37.4200 6886.9684
37.4300 6701.0752
37.4400 6406.4652
37.4500 6873.4466
37.4600 6280.1392
37.4700 6602.1622
37.4800 6246.6502
37.4900 6586.5336
37.5000 6703.5242
37.5100 6673.4086
37.5200 6580.6254
37.5300 6237.4080
37.5400 6182.9610
37.5500 5454.4932
37.5600 6307.2002
37.5700 6805.8198
37.5800 6746.1242
37.5900 6468.0268
37.6000 7027.1022
37.6100 7046.6660
37.6200 7447.4238
37.6300 6697.9086
37.6400 6159.4238
37.6500 6768.9458
37.6600 7216.6784
37.6700 7163.7496
37.6800 6945.4214
37.6900 5986.8200
37.7000 6694.3284
37.7100 6515.6210
37.7200 6470.8562
37.7300 6540.0208
37.7400 6315.5136
37.7500 7109.0434
37.7600 6795.4432
37.7700 7184.6822
37.7800 7355.3218
37.7900 7508.6080
37.8000 7957.1182
37.8100 7821.3724
37.8200 8420.3226
37.8300 8667.1540
37.8400 8633.5530
37.8500 9093.5038
37.8600 9603.8890
37.8700 9683.6476
37.8800 9550.0396
37.8900 10741.6962
37.9000 10261.4350
37.9100 9698.8972
37.9200 9518.2556
37.9300 9051.9094
37.9400 9133.5154
37.9500 8292.0416
37.9600 8781.0068
37.9700 8946.2982
37.9800 8343.4010
37.9900 8263.1780
38.0000 8744.4662
38.0100 8558.2378
38.0200 8456.2856
38.0300 7844.8160
38.0400 8042.5604
38.0500 7739.7308
38.0600 7931.0496
38.0700 7852.8946
38.0800 7625.1810
38.0900 7270.1970
38.1000 7501.4720
38.1100 7887.8342
38.1200 7749.1088
38.1300 7367.2134
38.1400 6281.1798
38.1500 7322.7234
38.1600 7603.2190
38.1700 7648.7458
38.1800 8023.2880
38.1900 7385.2768
38.2000 6828.9276
38.2100 7912.4980
38.2200 8111.8962
38.2300 7908.9346
38.2400 8784.4890
38.2500 8304.6412
38.2600 8632.1004
38.2700 8330.0258
38.2800 9039.3910
38.2900 9214.8926
38.3000 9100.2176
38.3100 8771.5738
38.3200 9143.0176
38.3300 9587.9324
38.3400 8989.2080
38.3500 9330.8990
38.3600 9384.8124
38.3700 10246.8588
38.3800 10118.7348
38.3900 9216.5130
38.4000 9840.9718
38.4100 9885.6058
38.4200 9871.7326
38.4300 9624.7100
38.4400 9012.5874
38.4500 9470.2056
38.4600 9366.3056
38.4700 9272.4976
38.4800 8946.4548
38.4900 8557.2236
38.5000 9576.9256
38.5100 9938.1296
38.5200 9683.1432
38.5300 9849.9960
38.5400 9998.7650
38.5500 9623.5270
38.5600 9349.9094
38.5700 9492.4336
38.5800 9630.7830
38.5900 9383.0038
38.6000 9822.5678
38.6100 9216.0930
38.6200 8722.2748
38.6300 8697.9360
38.6400 8465.8346
38.6500 9159.4014
38.6600 9085.7554
38.6700 8253.3590
38.6800 8341.3086
38.6900 8670.6532
38.7000 7910.6970
38.7100 7808.8714
38.7200 7614.5828
38.7300 7746.1074
38.7400 8130.6472
38.7500 7947.7422
38.7600 7302.5344
38.7700 7672.5936
38.7800 8572.0724
38.7900 7890.0410
38.8000 8809.3222
38.8100 9126.1424
38.8200 9732.3242
38.8300 10000.2746
38.8400 10823.9614
38.8500 10923.7020
38.8600 12263.6596
38.8700 12416.7888
38.8800 13635.1136
38.8900 14279.8116
38.9000 15697.7732
38.9100 15733.4594
38.9200 16856.8594
38.9300 17268.8476
38.9400 16047.2290
38.9500 16496.3756
38.9600 16641.9738
38.9700 13536.0982
38.9800 14281.6376
38.9900 13569.0022
39.0000 13093.4642
39.0100 13190.4440
39.0200 11436.2040
39.0300 12060.3800
39.0400 11280.0314
39.0500 11320.0490
39.0600 9766.2710
39.0700 9365.7898
39.0800 8725.4964
39.0900 8015.2390
39.1000 7815.9622
39.1100 7174.2390
39.1200 6365.9668
39.1300 6509.6120
39.1400 6378.3758
39.1500 5877.8336
39.1600 5548.1242
39.1700 5447.9752
39.1800 5608.8150
39.1900 5352.2812
39.2000 5098.5666
39.2100 5320.3202
39.2200 5191.8992
39.2300 5626.1272
39.2400 5141.2878
39.2500 4953.1270
39.2600 5161.3968
39.2700 5107.3848
39.2800 5377.3188
39.2900 5472.8088
39.3000 5792.2872
39.3100 5310.5052
39.3200 5184.3252
39.3300 5595.5974
39.3400 5880.8858
39.3500 5456.0078
39.3600 5686.2182
39.3700 5894.2876
39.3800 5865.5736
39.3900 6100.9602
39.4000 5467.7942
39.4100 6375.7142
39.4200 6156.5176
39.4300 6075.4532
39.4400 6772.4350
39.4500 6715.8610
39.4600 7360.9776
39.4700 7796.0638
39.4800 7980.0440
39.4900 8557.8736
39.5000 8923.3744
39.5100 8962.9648
39.5200 9469.1030
39.5300 9216.0410
39.5400 10165.0920
39.5500 9538.2670
39.5600 10075.4334
39.5700 9887.9130
39.5800 9510.7950
39.5900 9667.5496
39.6000 9670.5424
39.6100 10031.7088
39.6200 8954.7170
39.6300 8600.1434
39.6400 8357.8426
39.6500 8784.5388
39.6600 8140.8844
39.6700 7956.4234
39.6800 7684.4066
39.6900 7336.4618
39.7000 6990.5888
39.7100 6526.1922
39.7200 6286.7716
39.7300 6448.1974
39.7400 6016.5278
39.7500 5659.3440
39.7600 5658.0074
39.7700 4916.2634
39.7800 5327.6148
39.7900 5937.2482
39.8000 5230.7852
39.8100 4594.0750
39.8200 4687.8678
39.8300 4624.0784
39.8400 4725.7166
39.8500 4552.9978
39.8600 4728.8870
39.8700 5212.1098
39.8800 4744.0938
39.8900 4766.5980
39.9000 4121.0820
39.9100 5196.9564
39.9200 4706.6838
39.9300 5212.9130
39.9400 4700.6618
39.9500 4562.7670
39.9600 4728.3818
39.9700 4643.6350
39.9800 4597.8562
39.9900 4818.6930
40.0000 4778.2084
