*FILE_COMMENT ""
*FILE_MD5 ""
*FILE_MEMO ""
*FILE_OPERATOR "ysh"
*FILE_PACKAGE_NAME ""
*FILE_PART_ID "GeneralMeasurement(BB)"
*FILE_SAMPLE ""
*FILE_SYSTEM_NAME "SmartLab"
*FILE_TYPE "RAS_RAW"
*FILE_USERGROUP "Operator1"
*FILE_VERSION "1"
*HW_ATTACHMENT_ID "ATT0025"
*HW_ATTACHMENT_NAME "Standard"
*HW_ATTACHMENT_NAME_INTERNAL "Standard"
*HW_COUNTER_ID-0 "CUT0054"
*HW_COUNTER_ID-2 "CMC0020"
*HW_COUNTER_MONOCHRO_ID "CMC0020"
*HW_COUNTER_MONOCHRO_NAME "None"
*HW_COUNTER_MONOCHRO_NAME_INTERNAL "None"
*HW_COUNTER_NAME_INTERNAL "HyPix400(V)"
*HW_COUNTER_NAME-0 "HyPix400(V)"
*HW_COUNTER_NAME-1 "None"
*HW_COUNTER_NAME-2 "None"
*HW_COUNTER_PIXEL_SIZE "0.1"
*HW_COUNTER_SELECT_NAME "HyPix400(V)"
*HW_EXTERNAL_CONTROLLER_NAME "None"
*HW_EXTERNAL_CONTROLLER_NAME_INTERNAL "None"
*HW_GONIOMETER_ID "GON0021"
*HW_GONIOMETER_NAME "Standard"
*HW_GONIOMETER_NAME_INTERNAL "Standard"
*HW_GONIOMETER_RADIUS-0 "90.0"
*HW_GONIOMETER_RADIUS-1 "114.0"
*HW_GONIOMETER_RADIUS-2 "190.0"
*HW_GONIOMETER_RADIUS-3 "300.0"
*HW_GONIOMETER_RADIUS-4 "187.0"
*HW_GONIOMETER_RADIUS-5 "300.0"
*HW_GONIOMETER_RADIUS-6 "113.0"
*HW_GONIOMETER_RADIUS-7 "331.0"
*HW_I_CBO_ID "CBO0023"
*HW_I_CBO_NAME "Open-BB"
*HW_I_CBO_NAME_INTERNAL "Open-BB"
*HW_I_MONOCHRO_ID "ISO0021"
*HW_I_MONOCHRO_NAME "IPS_adaptor"
*HW_I_MONOCHRO_NAME_INTERNAL "IPS_adaptor"
*HW_I_OPT_ID-1 "CBO0023"
*HW_I_OPT_ID-2 "ISL0021"
*HW_I_PRIMARY_NAME_INTERNAL "Manual"
*HW_I_SLIT_ID "ISL0021"
*HW_I_SLIT_NAME "Auto"
*HW_I_SLIT_NAME_INTERNAL "Auto"
*HW_R_ATTENUATER_AUTOMODE "0"
*HW_R_ATTENUATER_ID "ATN0020"
*HW_R_ATTENUATER_NAME "No_unit"
*HW_R_ATTENUATOR_NAME_INTERNAL "No_unit"
*HW_R_OPT_ID-1 "RCR0022"
*HW_R_OPT_ID-2 "RSO0021"
*HW_R_OPT_ID-3 "RRS0022"
*HW_R_OPT_ID-4 "ATN0020"
*HW_R_ROD_ID "RCR0022"
*HW_R_ROD_NAME "ROD_adaptor"
*HW_R_ROD_NAME_INTERNAL "ROD_adaptor"
*HW_R_RPS_ID "RSO0021"
*HW_R_RPS_NAME "RPS_adaptor"
*HW_R_RPS_NAME_INTERNAL "RPS_adaptor"
*HW_R_RS_ID "RRS0022"
*HW_R_RS_NAME "Virtual"
*HW_R_RS_NAME_INTERNAL "Virtual"
*HW_R_SS_NAME_INTERNAL "FilterBoxForHyPix"
*HW_ROBOT_NAME "No_unit"
*HW_ROBOT_NAME_INTERNAL "No_unit"
*HW_SAMPLE_CAMERA_NAME "None"
*HW_SAMPLE_CAMERA_NAME_INTERNAL "None"
*HW_SAMPLE_HOLDER_NAME_INTERNAL "Z_Standard"
*HW_SAMPLE_NAME "PowderSample"
*HW_SAMPLE_NAME_INTERNAL "PowderSample"
*HW_SAMPLE_PLATE_NAME "None"
*HW_SAMPLE_PLATE_NAME_INTERNAL "None"
*HW_SAMPLE_SPACER_NAME "None"
*HW_SAMPLE_SPACER_NAME_INTERNAL "None"
*HW_USERINFO_CATALOG_NO ""
*HW_USERINFO_INSTRUMENT_ID ""
*HW_USERINFO_INSTRUMENT_NAME ""
*HW_USERINFO_INSTRUMENT_NO ""
*HW_USERINFO_MODEL ""
*HW_USERINFO_ORDER_NO ""
*HW_USERINFO_SERIAL_NO ""
*HW_USERINFO_VERIFY_INSTRUMENT_ID "00-07-fe-01-2d-7e"
*HW_VER_RCD_COUNTER_UNIT "N/A"
*HW_VER_RCD_CPU "3.4.0"
*HW_VER_RCD_FPGA "1.2.3"
*HW_VER_RCD_GONIO_UNIT "7.0.0"
*HW_VER_RCD_INCIDENT_UNIT "7.0.0"
*HW_VER_RCD_RECEIVING_UNIT "7.0.0"
*HW_VER_RCD_TYPE "RINC"
*HW_VER_XGC_CPU "3.4.0"
*HW_VER_XGC_CW "4.0.0"
*HW_VER_XGC_HV "4.0.0"
*HW_VER_XGC_RS1 "4.0.0"
*HW_VER_XGC_RS2 "N/A"
*HW_VER_XGC_RT "N/A"
*HW_VER_XGC_TYPE "RINC"
*HW_XG_CURRENT_UNIT "mA"
*HW_XG_FOCUS "0.4mm x 12mm"
*HW_XG_FOCUS_TYPE "LongFineToshiba"
*HW_XG_TARGET_ATOMIC_NUMBER "29"
*HW_XG_TARGET_NAME "Cu"
*HW_XG_TYPE "Hermetic"
*HW_XG_VOLTAGE_UNIT "kV"
*HW_XG_WAVE_LENGTH_ALPHA1 "1.540593"
*HW_XG_WAVE_LENGTH_ALPHA2 "1.544414"
*HW_XG_WAVE_LENGTH_BETA "1.392246"
*HW_XG_WAVE_LENGTH_UNIT "Angstrom"
*MEAS_COND_AXIS_NAME_INTERNAL-0 "ThetaS"
*MEAS_COND_AXIS_NAME_INTERNAL-1 "ThetaD"
*MEAS_COND_AXIS_NAME_INTERNAL-10 "IncidentSlitBox"
*MEAS_COND_AXIS_NAME_INTERNAL-11 "IncidentSlitBox"
*MEAS_COND_AXIS_NAME_INTERNAL-12 "IncidentSlitBox"
*MEAS_COND_AXIS_NAME_INTERNAL-13 "Zs"
*MEAS_COND_AXIS_NAME_INTERNAL-14 "IncidentAxdSlit"
*MEAS_COND_AXIS_NAME_INTERNAL-15 "IncidentAxdSlit"
*MEAS_COND_AXIS_NAME_INTERNAL-16 "IncidentAxdSlit"
*MEAS_COND_AXIS_NAME_INTERNAL-17 "Z"
*MEAS_COND_AXIS_NAME_INTERNAL-18 "DirectBeamStop"
*MEAS_COND_AXIS_NAME_INTERNAL-19 "KnifeEdge"
*MEAS_COND_AXIS_NAME_INTERNAL-2 "TwoTheta"
*MEAS_COND_AXIS_NAME_INTERNAL-20 "Filter"
*MEAS_COND_AXIS_NAME_INTERNAL-21 "PSA"
*MEAS_COND_AXIS_NAME_INTERNAL-22 "ReceivingSollerSlit"
*MEAS_COND_AXIS_NAME_INTERNAL-23 "ReceivingSlitBox2"
*MEAS_COND_AXIS_NAME_INTERNAL-24 "ReceivingSlitBox2"
*MEAS_COND_AXIS_NAME_INTERNAL-25 "ReceivingSlitBox2"
*MEAS_COND_AXIS_NAME_INTERNAL-26 "ModuleSensorType"
*MEAS_COND_AXIS_NAME_INTERNAL-27 "GainMode"
*MEAS_COND_AXIS_NAME_INTERNAL-28 "PHA"
*MEAS_COND_AXIS_NAME_INTERNAL-29 "DetectorBeamStop"
*MEAS_COND_AXIS_NAME_INTERNAL-3 "Omega"
*MEAS_COND_AXIS_NAME_INTERNAL-30 "DetectorFilter"
*MEAS_COND_AXIS_NAME_INTERNAL-31 "DedicatedHolder"
*MEAS_COND_AXIS_NAME_INTERNAL-32 "Target_TargetTime"
*MEAS_COND_AXIS_NAME_INTERNAL-33 "Target_XrayOnTime"
*MEAS_COND_AXIS_NAME_INTERNAL-34 "Target_TMPTime"
*MEAS_COND_AXIS_NAME_INTERNAL-35 "Target_RPTime"
*MEAS_COND_AXIS_NAME_INTERNAL-36 "Target_FilamentTime"
*MEAS_COND_AXIS_NAME_INTERNAL-37 "Target_IG"
*MEAS_COND_AXIS_NAME_INTERNAL-38 "Target_GP"
*MEAS_COND_AXIS_NAME_INTERNAL-39 "Target_FC"
*MEAS_COND_AXIS_NAME_INTERNAL-4 "TwoThetaTheta"
*MEAS_COND_AXIS_NAME_INTERNAL-40 "HVPS_Bias"
*MEAS_COND_AXIS_NAME_INTERNAL-41 "HVPS_HVPSTime"
*MEAS_COND_AXIS_NAME_INTERNAL-42 "HVPS_Type1Time"
*MEAS_COND_AXIS_NAME_INTERNAL-43 "HVPS_Type2Time"
*MEAS_COND_AXIS_NAME_INTERNAL-44 "HVPS_Type3Time"
*MEAS_COND_AXIS_NAME_INTERNAL-45 "CW_IERTime"
*MEAS_COND_AXIS_NAME_INTERNAL-46 "CW_ECTime"
*MEAS_COND_AXIS_NAME_INTERNAL-47 "CW_Flow1"
*MEAS_COND_AXIS_NAME_INTERNAL-48 "CW_Temperature1"
*MEAS_COND_AXIS_NAME_INTERNAL-49 "CW_Pressure1"
*MEAS_COND_AXIS_NAME_INTERNAL-5 "TwoThetaOmega"
*MEAS_COND_AXIS_NAME_INTERNAL-50 "CW_PressureIn"
*MEAS_COND_AXIS_NAME_INTERNAL-51 "CW_PressureOut"
*MEAS_COND_AXIS_NAME_INTERNAL-52 "CW_Flow2"
*MEAS_COND_AXIS_NAME_INTERNAL-53 "CW_Temperature2"
*MEAS_COND_AXIS_NAME_INTERNAL-54 "CW_Pressure2"
*MEAS_COND_AXIS_NAME_INTERNAL-55 "RE_EnclosureTemp"
*MEAS_COND_AXIS_NAME_INTERNAL-56 "RE_EnclosureHummidity"
*MEAS_COND_AXIS_NAME_INTERNAL-57 "RE_CabinetTemp"
*MEAS_COND_AXIS_NAME_INTERNAL-58 "RE_RPTemp"
*MEAS_COND_AXIS_NAME_INTERNAL-59 "RE_ShutterAXrayOnTime"
*MEAS_COND_AXIS_NAME_INTERNAL-6 "OmegaTwoTheta"
*MEAS_COND_AXIS_NAME_INTERNAL-60 "RE_ShutterATimes"
*MEAS_COND_AXIS_NAME_INTERNAL-61 "RE_ShutterAOpenCloseTime"
*MEAS_COND_AXIS_NAME_INTERNAL-62 "RE_ShutterACloseOpenTime"
*MEAS_COND_AXIS_NAME_INTERNAL-63 "RE_ShutterBXrayOnTime"
*MEAS_COND_AXIS_NAME_INTERNAL-64 "RE_ShutterBTimes"
*MEAS_COND_AXIS_NAME_INTERNAL-65 "RE_ShutterBOpenCloseTime"
*MEAS_COND_AXIS_NAME_INTERNAL-66 "RE_ShutterBCloseOpenTime"
*MEAS_COND_AXIS_NAME_INTERNAL-67 "RE_XrayWarningRamp"
*MEAS_COND_AXIS_NAME_INTERNAL-68 "RE_ShutterAInstallation"
*MEAS_COND_AXIS_NAME_INTERNAL-69 "RE_ShutterARamp"
*MEAS_COND_AXIS_NAME_INTERNAL-7 "GonioDirectBeamStop"
*MEAS_COND_AXIS_NAME_INTERNAL-70 "RE_ShutterBInstallation"
*MEAS_COND_AXIS_NAME_INTERNAL-71 "RE_ShutterBRamp"
*MEAS_COND_AXIS_NAME_INTERNAL-72 "RE_ExtShutterCLS"
*MEAS_COND_AXIS_NAME_INTERNAL-73 "RE_ExtXrayOFF"
*MEAS_COND_AXIS_NAME_INTERNAL-74 "RE_ExtSafetyCircuit"
*MEAS_COND_AXIS_NAME_INTERNAL-75 "Version_CPU"
*MEAS_COND_AXIS_NAME_INTERNAL-76 "Version_RS1"
*MEAS_COND_AXIS_NAME_INTERNAL-77 "Version_RS2"
*MEAS_COND_AXIS_NAME_INTERNAL-78 "Version_HV"
*MEAS_COND_AXIS_NAME_INTERNAL-79 "Version_CW"
*MEAS_COND_AXIS_NAME_INTERNAL-8 "CBOType"
*MEAS_COND_AXIS_NAME_INTERNAL-80 "Version_RT"
*MEAS_COND_AXIS_NAME_INTERNAL-81 "IncidentPrimary"
*MEAS_COND_AXIS_NAME_INTERNAL-82 "IncidentMonochromator"
*MEAS_COND_AXIS_NAME_INTERNAL-83 "ReceivingOptics"
*MEAS_COND_AXIS_NAME_INTERNAL-84 "CounterMonochromatorKind"
*MEAS_COND_AXIS_NAME_INTERNAL-9 "IncidentSollerSlit"
*MEAS_COND_AXIS_NAME-0 "ThetaS"
*MEAS_COND_AXIS_NAME-1 "ThetaD"
*MEAS_COND_AXIS_NAME-10 "IncidentSlitBox"
*MEAS_COND_AXIS_NAME-11 "IncidentSlitBox-_Axis"
*MEAS_COND_AXIS_NAME-12 "SlitDS"
*MEAS_COND_AXIS_NAME-13 "Zs"
*MEAS_COND_AXIS_NAME-14 "IncidentAxdSlit"
*MEAS_COND_AXIS_NAME-15 "LLS"
*MEAS_COND_AXIS_NAME-16 "DHLSlit"
*MEAS_COND_AXIS_NAME-17 "Z"
*MEAS_COND_AXIS_NAME-18 "DirectBeamStop"
*MEAS_COND_AXIS_NAME-19 "KnifeEdge"
*MEAS_COND_AXIS_NAME-2 "TwoTheta"
*MEAS_COND_AXIS_NAME-20 "Filter"
*MEAS_COND_AXIS_NAME-21 "PSA"
*MEAS_COND_AXIS_NAME-22 "ReceivingSollerSlit"
*MEAS_COND_AXIS_NAME-23 "ReceivingSlitBox2"
*MEAS_COND_AXIS_NAME-24 "ReceivingSlitBox2-_Axis"
*MEAS_COND_AXIS_NAME-25 "SlitRS"
*MEAS_COND_AXIS_NAME-26 "ModuleSensorType"
*MEAS_COND_AXIS_NAME-27 "GainMode"
*MEAS_COND_AXIS_NAME-28 "PHA"
*MEAS_COND_AXIS_NAME-29 "DetectorBeamStop"
*MEAS_COND_AXIS_NAME-3 "Omega"
*MEAS_COND_AXIS_NAME-30 "DetectorFilter"
*MEAS_COND_AXIS_NAME-31 "DedicatedHolder"
*MEAS_COND_AXIS_NAME-32 "Target_TargetTime"
*MEAS_COND_AXIS_NAME-33 "Target_XrayOnTime"
*MEAS_COND_AXIS_NAME-34 "Target_TMPTime"
*MEAS_COND_AXIS_NAME-35 "Target_RPTime"
*MEAS_COND_AXIS_NAME-36 "Target_FilamentTime"
*MEAS_COND_AXIS_NAME-37 "Target_IG"
*MEAS_COND_AXIS_NAME-38 "Target_GP"
*MEAS_COND_AXIS_NAME-39 "Target_FC"
*MEAS_COND_AXIS_NAME-4 "TwoThetaTheta"
*MEAS_COND_AXIS_NAME-40 "HVPS_Bias"
*MEAS_COND_AXIS_NAME-41 "HVPS_HVPSTime"
*MEAS_COND_AXIS_NAME-42 "HVPS_Type1Time"
*MEAS_COND_AXIS_NAME-43 "HVPS_Type2Time"
*MEAS_COND_AXIS_NAME-44 "HVPS_Type3Time"
*MEAS_COND_AXIS_NAME-45 "CW_IERTime"
*MEAS_COND_AXIS_NAME-46 "CW_ECTime"
*MEAS_COND_AXIS_NAME-47 "CW_Flow1"
*MEAS_COND_AXIS_NAME-48 "CW_Temperature1"
*MEAS_COND_AXIS_NAME-49 "CW_Pressure1"
*MEAS_COND_AXIS_NAME-5 "TwoThetaOmega"
*MEAS_COND_AXIS_NAME-50 "CW_PressureIn"
*MEAS_COND_AXIS_NAME-51 "CW_PressureOut"
*MEAS_COND_AXIS_NAME-52 "CW_Flow2"
*MEAS_COND_AXIS_NAME-53 "CW_Temperature2"
*MEAS_COND_AXIS_NAME-54 "CW_Pressure2"
*MEAS_COND_AXIS_NAME-55 "RE_EnclosureTemp"
*MEAS_COND_AXIS_NAME-56 "RE_EnclosureHummidity"
*MEAS_COND_AXIS_NAME-57 "RE_CabinetTemp"
*MEAS_COND_AXIS_NAME-58 "RE_RPTemp"
*MEAS_COND_AXIS_NAME-59 "RE_ShutterAXrayOnTime"
*MEAS_COND_AXIS_NAME-6 "OmegaTwoTheta"
*MEAS_COND_AXIS_NAME-60 "RE_ShutterATimes"
*MEAS_COND_AXIS_NAME-61 "RE_ShutterAOpenCloseTime"
*MEAS_COND_AXIS_NAME-62 "RE_ShutterACloseOpenTime"
*MEAS_COND_AXIS_NAME-63 "RE_ShutterBXrayOnTime"
*MEAS_COND_AXIS_NAME-64 "RE_ShutterBTimes"
*MEAS_COND_AXIS_NAME-65 "RE_ShutterBOpenCloseTime"
*MEAS_COND_AXIS_NAME-66 "RE_ShutterBCloseOpenTime"
*MEAS_COND_AXIS_NAME-67 "RE_XrayWarningRamp"
*MEAS_COND_AXIS_NAME-68 "RE_ShutterAInstallation"
*MEAS_COND_AXIS_NAME-69 "RE_ShutterARamp"
*MEAS_COND_AXIS_NAME-7 "GonioDirectBeamStop"
*MEAS_COND_AXIS_NAME-70 "RE_ShutterBInstallation"
*MEAS_COND_AXIS_NAME-71 "RE_ShutterBRamp"
*MEAS_COND_AXIS_NAME-72 "RE_ExtShutterCLS"
*MEAS_COND_AXIS_NAME-73 "RE_ExtXrayOFF"
*MEAS_COND_AXIS_NAME-74 "RE_ExtSafetyCircuit"
*MEAS_COND_AXIS_NAME-75 "Version_CPU"
*MEAS_COND_AXIS_NAME-76 "Version_RS1"
*MEAS_COND_AXIS_NAME-77 "Version_RS2"
*MEAS_COND_AXIS_NAME-78 "Version_HV"
*MEAS_COND_AXIS_NAME-79 "Version_CW"
*MEAS_COND_AXIS_NAME-8 "CBOType"
*MEAS_COND_AXIS_NAME-80 "Version_RT"
*MEAS_COND_AXIS_NAME-81 "IncidentPrimary"
*MEAS_COND_AXIS_NAME-82 "IncidentMonochromator"
*MEAS_COND_AXIS_NAME-83 "ReceivingOptics"
*MEAS_COND_AXIS_NAME-84 "CounterMonochromatorKind"
*MEAS_COND_AXIS_NAME-9 "IncidentSollerSlit"
*MEAS_COND_AXIS_OFFSET-0 "0"
*MEAS_COND_AXIS_OFFSET-1 "0"
*MEAS_COND_AXIS_OFFSET-10 "0"
*MEAS_COND_AXIS_OFFSET-11 "0"
*MEAS_COND_AXIS_OFFSET-12 "0"
*MEAS_COND_AXIS_OFFSET-13 "0"
*MEAS_COND_AXIS_OFFSET-14 "0"
*MEAS_COND_AXIS_OFFSET-15 "0"
*MEAS_COND_AXIS_OFFSET-16 "0"
*MEAS_COND_AXIS_OFFSET-17 "0"
*MEAS_COND_AXIS_OFFSET-18 "0"
*MEAS_COND_AXIS_OFFSET-19 "0"
*MEAS_COND_AXIS_OFFSET-2 "0"
*MEAS_COND_AXIS_OFFSET-20 "0"
*MEAS_COND_AXIS_OFFSET-21 "0"
*MEAS_COND_AXIS_OFFSET-22 "0"
*MEAS_COND_AXIS_OFFSET-23 "0"
*MEAS_COND_AXIS_OFFSET-24 "0"
*MEAS_COND_AXIS_OFFSET-25 "0"
*MEAS_COND_AXIS_OFFSET-26 "0"
*MEAS_COND_AXIS_OFFSET-27 "0"
*MEAS_COND_AXIS_OFFSET-28 "0"
*MEAS_COND_AXIS_OFFSET-29 "0"
*MEAS_COND_AXIS_OFFSET-3 "0"
*MEAS_COND_AXIS_OFFSET-30 "0"
*MEAS_COND_AXIS_OFFSET-31 "0"
*MEAS_COND_AXIS_OFFSET-32 "0"
*MEAS_COND_AXIS_OFFSET-33 "0"
*MEAS_COND_AXIS_OFFSET-34 "0"
*MEAS_COND_AXIS_OFFSET-35 "0"
*MEAS_COND_AXIS_OFFSET-36 "0"
*MEAS_COND_AXIS_OFFSET-37 "0"
*MEAS_COND_AXIS_OFFSET-38 "0"
*MEAS_COND_AXIS_OFFSET-39 "0"
*MEAS_COND_AXIS_OFFSET-4 "0"
*MEAS_COND_AXIS_OFFSET-40 "0"
*MEAS_COND_AXIS_OFFSET-41 "0"
*MEAS_COND_AXIS_OFFSET-42 "0"
*MEAS_COND_AXIS_OFFSET-43 "0"
*MEAS_COND_AXIS_OFFSET-44 "0"
*MEAS_COND_AXIS_OFFSET-45 "0"
*MEAS_COND_AXIS_OFFSET-46 "0"
*MEAS_COND_AXIS_OFFSET-47 "0"
*MEAS_COND_AXIS_OFFSET-48 "0"
*MEAS_COND_AXIS_OFFSET-49 "0"
*MEAS_COND_AXIS_OFFSET-5 "0"
*MEAS_COND_AXIS_OFFSET-50 "0"
*MEAS_COND_AXIS_OFFSET-51 "0"
*MEAS_COND_AXIS_OFFSET-52 "0"
*MEAS_COND_AXIS_OFFSET-53 "0"
*MEAS_COND_AXIS_OFFSET-54 "0"
*MEAS_COND_AXIS_OFFSET-55 "0"
*MEAS_COND_AXIS_OFFSET-56 "0"
*MEAS_COND_AXIS_OFFSET-57 "0"
*MEAS_COND_AXIS_OFFSET-58 "0"
*MEAS_COND_AXIS_OFFSET-59 "0"
*MEAS_COND_AXIS_OFFSET-6 "0"
*MEAS_COND_AXIS_OFFSET-60 "0"
*MEAS_COND_AXIS_OFFSET-61 "0"
*MEAS_COND_AXIS_OFFSET-62 "0"
*MEAS_COND_AXIS_OFFSET-63 "0"
*MEAS_COND_AXIS_OFFSET-64 "0"
*MEAS_COND_AXIS_OFFSET-65 "0"
*MEAS_COND_AXIS_OFFSET-66 "0"
*MEAS_COND_AXIS_OFFSET-67 "0"
*MEAS_COND_AXIS_OFFSET-68 "0"
*MEAS_COND_AXIS_OFFSET-69 "0"
*MEAS_COND_AXIS_OFFSET-7 "0"
*MEAS_COND_AXIS_OFFSET-70 "0"
*MEAS_COND_AXIS_OFFSET-71 "0"
*MEAS_COND_AXIS_OFFSET-72 "0"
*MEAS_COND_AXIS_OFFSET-73 "0"
*MEAS_COND_AXIS_OFFSET-74 "0"
*MEAS_COND_AXIS_OFFSET-75 "0"
*MEAS_COND_AXIS_OFFSET-76 "0"
*MEAS_COND_AXIS_OFFSET-77 "0"
*MEAS_COND_AXIS_OFFSET-78 "0"
*MEAS_COND_AXIS_OFFSET-79 "0"
*MEAS_COND_AXIS_OFFSET-8 "0"
*MEAS_COND_AXIS_OFFSET-80 "0"
*MEAS_COND_AXIS_OFFSET-81 "0"
*MEAS_COND_AXIS_OFFSET-82 "0"
*MEAS_COND_AXIS_OFFSET-83 "0"
*MEAS_COND_AXIS_OFFSET-84 "0"
*MEAS_COND_AXIS_OFFSET-9 "0"
*MEAS_COND_AXIS_POSITION-0 "0.0000"
*MEAS_COND_AXIS_POSITION-1 "0.0000"
*MEAS_COND_AXIS_POSITION-10 "1/3deg"
*MEAS_COND_AXIS_POSITION-11 "1.105625"
*MEAS_COND_AXIS_POSITION-12 "1/3deg"
*MEAS_COND_AXIS_POSITION-13 "0.0000000"
*MEAS_COND_AXIS_POSITION-14 "10mm"
*MEAS_COND_AXIS_POSITION-15 "10mm"
*MEAS_COND_AXIS_POSITION-16 "10mm"
*MEAS_COND_AXIS_POSITION-17 "0.00000"
*MEAS_COND_AXIS_POSITION-18 "None"
*MEAS_COND_AXIS_POSITION-19 "None"
*MEAS_COND_AXIS_POSITION-2 "0.0000"
*MEAS_COND_AXIS_POSITION-20 "Cu_K-beta_1D"
*MEAS_COND_AXIS_POSITION-21 "PSA_open"
*MEAS_COND_AXIS_POSITION-22 "None"
*MEAS_COND_AXIS_POSITION-23 "20.100mm"
*MEAS_COND_AXIS_POSITION-24 "20.1"
*MEAS_COND_AXIS_POSITION-25 "20.100mm"
*MEAS_COND_AXIS_POSITION-26 "AC"
*MEAS_COND_AXIS_POSITION-27 "Mo-HiC"
*MEAS_COND_AXIS_POSITION-29 "None"
*MEAS_COND_AXIS_POSITION-3 "0.0000"
*MEAS_COND_AXIS_POSITION-30 "None"
*MEAS_COND_AXIS_POSITION-31 "None"
*MEAS_COND_AXIS_POSITION-4 "0.0000"
*MEAS_COND_AXIS_POSITION-5 "0.0000"
*MEAS_COND_AXIS_POSITION-6 "0.0000"
*MEAS_COND_AXIS_POSITION-7 "None"
*MEAS_COND_AXIS_POSITION-8 "Type1"
*MEAS_COND_AXIS_POSITION-81 "Manual"
*MEAS_COND_AXIS_POSITION-82 "IPS_adaptor"
*MEAS_COND_AXIS_POSITION-83 "PSA_open"
*MEAS_COND_AXIS_POSITION-84 "None"
*MEAS_COND_AXIS_POSITION-9 "Soller_slit_open"
*MEAS_COND_AXIS_RESOLUTION-0 "0.0001"
*MEAS_COND_AXIS_RESOLUTION-1 "0.0001"
*MEAS_COND_AXIS_RESOLUTION-10 "1/1600"
*MEAS_COND_AXIS_RESOLUTION-11 "1/1600"
*MEAS_COND_AXIS_RESOLUTION-12 "1/1600"
*MEAS_COND_AXIS_RESOLUTION-13 "0.0003125"
*MEAS_COND_AXIS_RESOLUTION-14 ""
*MEAS_COND_AXIS_RESOLUTION-15 ""
*MEAS_COND_AXIS_RESOLUTION-16 ""
*MEAS_COND_AXIS_RESOLUTION-17 "0.00002"
*MEAS_COND_AXIS_RESOLUTION-18 ""
*MEAS_COND_AXIS_RESOLUTION-19 ""
*MEAS_COND_AXIS_RESOLUTION-2 "0.0001"
*MEAS_COND_AXIS_RESOLUTION-20 ""
*MEAS_COND_AXIS_RESOLUTION-21 ""
*MEAS_COND_AXIS_RESOLUTION-22 ""
*MEAS_COND_AXIS_RESOLUTION-23 "0.1"
*MEAS_COND_AXIS_RESOLUTION-24 "0.1"
*MEAS_COND_AXIS_RESOLUTION-25 "0.1"
*MEAS_COND_AXIS_RESOLUTION-26 ""
*MEAS_COND_AXIS_RESOLUTION-27 ""
*MEAS_COND_AXIS_RESOLUTION-28 "1"
*MEAS_COND_AXIS_RESOLUTION-29 ""
*MEAS_COND_AXIS_RESOLUTION-3 "0.0001"
*MEAS_COND_AXIS_RESOLUTION-30 ""
*MEAS_COND_AXIS_RESOLUTION-31 ""
*MEAS_COND_AXIS_RESOLUTION-32 "0.01"
*MEAS_COND_AXIS_RESOLUTION-33 "0.010000"
*MEAS_COND_AXIS_RESOLUTION-34 "0.01"
*MEAS_COND_AXIS_RESOLUTION-35 "0.01"
*MEAS_COND_AXIS_RESOLUTION-36 "0.01"
*MEAS_COND_AXIS_RESOLUTION-37 "1"
*MEAS_COND_AXIS_RESOLUTION-38 "1"
*MEAS_COND_AXIS_RESOLUTION-39 "1"
*MEAS_COND_AXIS_RESOLUTION-4 "0.0002"
*MEAS_COND_AXIS_RESOLUTION-40 "1"
*MEAS_COND_AXIS_RESOLUTION-41 "0.01"
*MEAS_COND_AXIS_RESOLUTION-42 "0.01"
*MEAS_COND_AXIS_RESOLUTION-43 "0.01"
*MEAS_COND_AXIS_RESOLUTION-44 "0.01"
*MEAS_COND_AXIS_RESOLUTION-45 "0.010000"
*MEAS_COND_AXIS_RESOLUTION-46 "1"
*MEAS_COND_AXIS_RESOLUTION-47 "0.100000"
*MEAS_COND_AXIS_RESOLUTION-48 "1.000000"
*MEAS_COND_AXIS_RESOLUTION-49 "0.010000"
*MEAS_COND_AXIS_RESOLUTION-5 "0.0002"
*MEAS_COND_AXIS_RESOLUTION-50 "0.01"
*MEAS_COND_AXIS_RESOLUTION-51 "0.01"
*MEAS_COND_AXIS_RESOLUTION-52 "0.1"
*MEAS_COND_AXIS_RESOLUTION-53 "1"
*MEAS_COND_AXIS_RESOLUTION-54 "0.01"
*MEAS_COND_AXIS_RESOLUTION-55 "1.000000"
*MEAS_COND_AXIS_RESOLUTION-56 "1"
*MEAS_COND_AXIS_RESOLUTION-57 "1.000000"
*MEAS_COND_AXIS_RESOLUTION-58 "1"
*MEAS_COND_AXIS_RESOLUTION-59 "0.01"
*MEAS_COND_AXIS_RESOLUTION-6 "0.0001"
*MEAS_COND_AXIS_RESOLUTION-60 "1"
*MEAS_COND_AXIS_RESOLUTION-61 "1"
*MEAS_COND_AXIS_RESOLUTION-62 "1"
*MEAS_COND_AXIS_RESOLUTION-63 "0.01"
*MEAS_COND_AXIS_RESOLUTION-64 "1.000000"
*MEAS_COND_AXIS_RESOLUTION-65 "1.000000"
*MEAS_COND_AXIS_RESOLUTION-66 "1.000000"
*MEAS_COND_AXIS_RESOLUTION-67 "-"
*MEAS_COND_AXIS_RESOLUTION-68 "-"
*MEAS_COND_AXIS_RESOLUTION-69 "-"
*MEAS_COND_AXIS_RESOLUTION-7 ""
*MEAS_COND_AXIS_RESOLUTION-70 "1.000000"
*MEAS_COND_AXIS_RESOLUTION-71 "-"
*MEAS_COND_AXIS_RESOLUTION-72 "-"
*MEAS_COND_AXIS_RESOLUTION-73 "-"
*MEAS_COND_AXIS_RESOLUTION-74 "1.000000"
*MEAS_COND_AXIS_RESOLUTION-75 "1.000000"
*MEAS_COND_AXIS_RESOLUTION-76 "1.000000"
*MEAS_COND_AXIS_RESOLUTION-77 "1.000000"
*MEAS_COND_AXIS_RESOLUTION-78 "1.000000"
*MEAS_COND_AXIS_RESOLUTION-79 "1.000000"
*MEAS_COND_AXIS_RESOLUTION-8 ""
*MEAS_COND_AXIS_RESOLUTION-80 "1.000000"
*MEAS_COND_AXIS_RESOLUTION-9 ""
*MEAS_COND_AXIS_STATE-0 "Fixed"
*MEAS_COND_AXIS_STATE-1 "Fixed"
*MEAS_COND_AXIS_STATE-10 "Fixed"
*MEAS_COND_AXIS_STATE-11 "Fixed"
*MEAS_COND_AXIS_STATE-12 "Fixed"
*MEAS_COND_AXIS_STATE-13 "Fixed"
*MEAS_COND_AXIS_STATE-14 "Fixed"
*MEAS_COND_AXIS_STATE-15 "Fixed"
*MEAS_COND_AXIS_STATE-16 "Fixed"
*MEAS_COND_AXIS_STATE-17 "Fixed"
*MEAS_COND_AXIS_STATE-18 "Fixed"
*MEAS_COND_AXIS_STATE-19 "Fixed"
*MEAS_COND_AXIS_STATE-2 "Fixed"
*MEAS_COND_AXIS_STATE-20 "Fixed"
*MEAS_COND_AXIS_STATE-21 "Fixed"
*MEAS_COND_AXIS_STATE-22 "Fixed"
*MEAS_COND_AXIS_STATE-23 "Fixed"
*MEAS_COND_AXIS_STATE-24 "Fixed"
*MEAS_COND_AXIS_STATE-25 "Fixed"
*MEAS_COND_AXIS_STATE-26 "Fixed"
*MEAS_COND_AXIS_STATE-27 "Fixed"
*MEAS_COND_AXIS_STATE-28 "Fixed"
*MEAS_COND_AXIS_STATE-29 "Fixed"
*MEAS_COND_AXIS_STATE-3 "Fixed"
*MEAS_COND_AXIS_STATE-30 "Fixed"
*MEAS_COND_AXIS_STATE-31 "Fixed"
*MEAS_COND_AXIS_STATE-32 "Fixed"
*MEAS_COND_AXIS_STATE-33 "Fixed"
*MEAS_COND_AXIS_STATE-34 "Fixed"
*MEAS_COND_AXIS_STATE-35 "Fixed"
*MEAS_COND_AXIS_STATE-36 "Fixed"
*MEAS_COND_AXIS_STATE-37 "Fixed"
*MEAS_COND_AXIS_STATE-38 "Fixed"
*MEAS_COND_AXIS_STATE-39 "Fixed"
*MEAS_COND_AXIS_STATE-4 "Scan"
*MEAS_COND_AXIS_STATE-40 "Fixed"
*MEAS_COND_AXIS_STATE-41 "Fixed"
*MEAS_COND_AXIS_STATE-42 "Fixed"
*MEAS_COND_AXIS_STATE-43 "Fixed"
*MEAS_COND_AXIS_STATE-44 "Fixed"
*MEAS_COND_AXIS_STATE-45 "Fixed"
*MEAS_COND_AXIS_STATE-46 "Fixed"
*MEAS_COND_AXIS_STATE-47 "Fixed"
*MEAS_COND_AXIS_STATE-48 "Fixed"
*MEAS_COND_AXIS_STATE-49 "Fixed"
*MEAS_COND_AXIS_STATE-5 "Fixed"
*MEAS_COND_AXIS_STATE-50 "Fixed"
*MEAS_COND_AXIS_STATE-51 "Fixed"
*MEAS_COND_AXIS_STATE-52 "Fixed"
*MEAS_COND_AXIS_STATE-53 "Fixed"
*MEAS_COND_AXIS_STATE-54 "Fixed"
*MEAS_COND_AXIS_STATE-55 "Fixed"
*MEAS_COND_AXIS_STATE-56 "Fixed"
*MEAS_COND_AXIS_STATE-57 "Fixed"
*MEAS_COND_AXIS_STATE-58 "Fixed"
*MEAS_COND_AXIS_STATE-59 "Fixed"
*MEAS_COND_AXIS_STATE-6 "Fixed"
*MEAS_COND_AXIS_STATE-60 "Fixed"
*MEAS_COND_AXIS_STATE-61 "Fixed"
*MEAS_COND_AXIS_STATE-62 "Fixed"
*MEAS_COND_AXIS_STATE-63 "Fixed"
*MEAS_COND_AXIS_STATE-64 "Fixed"
*MEAS_COND_AXIS_STATE-65 "Fixed"
*MEAS_COND_AXIS_STATE-66 "Fixed"
*MEAS_COND_AXIS_STATE-67 "Fixed"
*MEAS_COND_AXIS_STATE-68 "Fixed"
*MEAS_COND_AXIS_STATE-69 "Fixed"
*MEAS_COND_AXIS_STATE-7 "Fixed"
*MEAS_COND_AXIS_STATE-70 "Fixed"
*MEAS_COND_AXIS_STATE-71 "Fixed"
*MEAS_COND_AXIS_STATE-72 "Fixed"
*MEAS_COND_AXIS_STATE-73 "Fixed"
*MEAS_COND_AXIS_STATE-74 "Fixed"
*MEAS_COND_AXIS_STATE-75 "Fixed"
*MEAS_COND_AXIS_STATE-76 "Fixed"
*MEAS_COND_AXIS_STATE-77 "Fixed"
*MEAS_COND_AXIS_STATE-78 "Fixed"
*MEAS_COND_AXIS_STATE-79 "Fixed"
*MEAS_COND_AXIS_STATE-8 "Fixed"
*MEAS_COND_AXIS_STATE-80 "Fixed"
*MEAS_COND_AXIS_STATE-9 "Fixed"
*MEAS_COND_AXIS_UNIT-0 "deg"
*MEAS_COND_AXIS_UNIT-1 "deg"
*MEAS_COND_AXIS_UNIT-10 ""
*MEAS_COND_AXIS_UNIT-11 "mm"
*MEAS_COND_AXIS_UNIT-12 ""
*MEAS_COND_AXIS_UNIT-13 "mm"
*MEAS_COND_AXIS_UNIT-14 ""
*MEAS_COND_AXIS_UNIT-15 ""
*MEAS_COND_AXIS_UNIT-16 ""
*MEAS_COND_AXIS_UNIT-17 "mm"
*MEAS_COND_AXIS_UNIT-18 ""
*MEAS_COND_AXIS_UNIT-19 ""
*MEAS_COND_AXIS_UNIT-2 "deg"
*MEAS_COND_AXIS_UNIT-20 ""
*MEAS_COND_AXIS_UNIT-21 ""
*MEAS_COND_AXIS_UNIT-22 ""
*MEAS_COND_AXIS_UNIT-23 ""
*MEAS_COND_AXIS_UNIT-24 "mm"
*MEAS_COND_AXIS_UNIT-25 ""
*MEAS_COND_AXIS_UNIT-26 ""
*MEAS_COND_AXIS_UNIT-27 ""
*MEAS_COND_AXIS_UNIT-28 "keV"
*MEAS_COND_AXIS_UNIT-29 ""
*MEAS_COND_AXIS_UNIT-3 "deg"
*MEAS_COND_AXIS_UNIT-30 ""
*MEAS_COND_AXIS_UNIT-31 ""
*MEAS_COND_AXIS_UNIT-32 "H"
*MEAS_COND_AXIS_UNIT-33 "H"
*MEAS_COND_AXIS_UNIT-34 "H"
*MEAS_COND_AXIS_UNIT-35 "H"
*MEAS_COND_AXIS_UNIT-36 "H"
*MEAS_COND_AXIS_UNIT-37 "mV"
*MEAS_COND_AXIS_UNIT-38 "V"
*MEAS_COND_AXIS_UNIT-39 "V"
*MEAS_COND_AXIS_UNIT-4 "deg"
*MEAS_COND_AXIS_UNIT-40 "V"
*MEAS_COND_AXIS_UNIT-41 "H"
*MEAS_COND_AXIS_UNIT-42 "H"
*MEAS_COND_AXIS_UNIT-43 "H"
*MEAS_COND_AXIS_UNIT-44 "H"
*MEAS_COND_AXIS_UNIT-45 "H"
*MEAS_COND_AXIS_UNIT-46 "uS/m"
*MEAS_COND_AXIS_UNIT-47 "L/min"
*MEAS_COND_AXIS_UNIT-48 "degree"
*MEAS_COND_AXIS_UNIT-49 "MPa"
*MEAS_COND_AXIS_UNIT-5 "deg"
*MEAS_COND_AXIS_UNIT-50 "MPa"
*MEAS_COND_AXIS_UNIT-51 "MPa"
*MEAS_COND_AXIS_UNIT-52 "L/min"
*MEAS_COND_AXIS_UNIT-53 "C"
*MEAS_COND_AXIS_UNIT-54 "MPa"
*MEAS_COND_AXIS_UNIT-55 "degree"
*MEAS_COND_AXIS_UNIT-56 "percent"
*MEAS_COND_AXIS_UNIT-57 "degree"
*MEAS_COND_AXIS_UNIT-58 "C"
*MEAS_COND_AXIS_UNIT-59 "H"
*MEAS_COND_AXIS_UNIT-6 "deg"
*MEAS_COND_AXIS_UNIT-60 "time"
*MEAS_COND_AXIS_UNIT-61 "msec"
*MEAS_COND_AXIS_UNIT-62 "msec"
*MEAS_COND_AXIS_UNIT-63 "H"
*MEAS_COND_AXIS_UNIT-64 "times"
*MEAS_COND_AXIS_UNIT-65 "msec"
*MEAS_COND_AXIS_UNIT-66 "msec"
*MEAS_COND_AXIS_UNIT-67 "-"
*MEAS_COND_AXIS_UNIT-68 "-"
*MEAS_COND_AXIS_UNIT-69 "-"
*MEAS_COND_AXIS_UNIT-7 ""
*MEAS_COND_AXIS_UNIT-70 ""
*MEAS_COND_AXIS_UNIT-71 "-"
*MEAS_COND_AXIS_UNIT-72 "-"
*MEAS_COND_AXIS_UNIT-73 "-"
*MEAS_COND_AXIS_UNIT-74 ""
*MEAS_COND_AXIS_UNIT-75 ""
*MEAS_COND_AXIS_UNIT-76 ""
*MEAS_COND_AXIS_UNIT-77 ""
*MEAS_COND_AXIS_UNIT-78 ""
*MEAS_COND_AXIS_UNIT-79 ""
*MEAS_COND_AXIS_UNIT-8 ""
*MEAS_COND_AXIS_UNIT-80 ""
*MEAS_COND_AXIS_UNIT-81 ""
*MEAS_COND_AXIS_UNIT-82 ""
*MEAS_COND_AXIS_UNIT-83 ""
*MEAS_COND_AXIS_UNIT-84 ""
*MEAS_COND_AXIS_UNIT-9 ""
*MEAS_COND_COUNTER_CENTER_X "48.5"
*MEAS_COND_COUNTER_CENTER_Y "192.5"
*MEAS_COND_COUNTER_COUNTMODE "Differential"
*MEAS_COND_COUNTER_DEADTIMECORRECTION "Enabled"
*MEAS_COND_COUNTER_DISTANCE "300"
*MEAS_COND_COUNTER_ENERGYMODE "Standard"
*MEAS_COND_COUNTER_INTEGRALMODE "Line"
*MEAS_COND_COUNTER_PHA_UNIT "keV"
*MEAS_COND_COUNTER_PHABASE "6.0"
*MEAS_COND_COUNTER_PHAWINDOW "4.0"
*MEAS_COND_COUNTER_PITCH_X "0.1"
*MEAS_COND_COUNTER_PITCH_Y "0.1"
*MEAS_COND_COUNTER_PITCHUNIT "mm"
*MEAS_COND_COUNTER_VALIDWIDTH_X "192"
*MEAS_COND_COUNTER_VALIDWIDTH_Y "201"
*MEAS_COND_OPT_ATTR "BB"
*MEAS_COND_OPT_NAME ""
*MEAS_COND_XG_CURRENT "40"
*MEAS_COND_XG_VOLTAGE "40"
*MEAS_COND_XG_WAVE_TYPE "Ka"
*MEAS_DATA_COUNT "3501"
*MEAS_SCAN_AXIS_X "TwoThetaTheta"
*MEAS_SCAN_AXIS_X_INTERNAL "TwoThetaTheta"
*MEAS_SCAN_END_TIME "09/09/2025 13:29:14"
*MEAS_SCAN_MODE "CONTINUOUS"
*MEAS_SCAN_MODE_INTERNAL "TDI_1D"
*MEAS_SCAN_RESOLUTION_X "0.0002"
*MEAS_SCAN_SPEED "10.0000"
*MEAS_SCAN_SPEED_UNIT "deg/min"
*MEAS_SCAN_START "5.0000"
*MEAS_SCAN_START_TIME "09/09/2025 13:25:04"
*MEAS_SCAN_STEP "0.0100"
*MEAS_SCAN_STOP "40.0000"
*MEAS_SCAN_UNEQUALY_SPACED "False"
*MEAS_SCAN_UNIT_X "deg"
*MEAS_SCAN_UNIT_Y "cps"
#Intensity_unit=cps
#Attenuator_coefficient=1.0000
5.0000 24043.0604
5.0100 24344.1304
5.0200 25268.6646
5.0300 25406.8970
5.0400 25683.8624
5.0500 25919.9422
5.0600 25788.4502
5.0700 27031.2520
5.0800 25903.4932
5.0900 27479.7710
5.1000 27833.0730
5.1100 28763.8936
5.1200 28440.9506
5.1300 30282.3446
5.1400 28457.9428
5.1500 29953.3326
5.1600 30773.9808
5.1700 32154.9662
5.1800 31747.8474
5.1900 33972.5464
5.2000 34301.3264
5.2100 34336.1124
5.2200 34651.4648
5.2300 34872.1842
5.2400 36192.8344
5.2500 37017.2810
5.2600 39393.7216
5.2700 40337.1420
5.2800 40417.9972
5.2900 43752.1444
5.3000 43362.9924
5.3100 44263.2610
5.3200 45549.1700
5.3300 47672.8272
5.3400 49720.9026
5.3500 50676.9612
5.3600 51858.7444
5.3700 56114.6078
5.3800 56825.1628
5.3900 57340.7348
5.4000 56514.1968
5.4100 58565.5680
5.4200 59399.1252
5.4300 58958.3130
5.4400 58388.6150
5.4500 57279.8380
5.4600 56369.6534
5.4700 54895.6624
5.4800 50929.2278
5.4900 47022.5790
5.5000 42906.1158
5.5100 39097.3064
5.5200 34787.5976
5.5300 29689.5264
5.5400 26072.1192
5.5500 22970.8638
5.5600 19614.5142
5.5700 17893.1742
5.5800 17067.9626
5.5900 16339.7634
5.6000 16249.7600
5.6100 15340.7236
5.6200 14549.5514
5.6300 14040.6646
5.6400 14397.7366
5.6500 14828.9896
5.6600 14818.0502
5.6700 13549.6358
5.6800 14746.9564
5.6900 13691.1764
5.7000 14222.4782
5.7100 12781.0344
5.7200 13052.6570
5.7300 12815.1286
5.7400 13239.0828
5.7500 12682.9254
5.7600 12572.3094
5.7700 12862.7096
5.7800 12946.1152
5.7900 12381.8044
5.8000 12455.5980
5.8100 12661.6424
5.8200 12601.2218
5.8300 12614.5996
5.8400 12742.5344
5.8500 12496.5342
5.8600 12164.3932
5.8700 13296.0236
5.8800 12281.0516
5.8900 13184.6588
5.9000 12111.7900
5.9100 13033.8878
5.9200 12552.1770
5.9300 12204.3478
5.9400 12140.9668
5.9500 12624.4740
5.9600 12956.6324
5.9700 12378.3834
5.9800 11909.4310
5.9900 11223.6746
6.0000 12461.1328
6.0100 12511.8358
6.0200 11538.5916
6.0300 12198.0712
6.0400 11598.4080
6.0500 11592.2252
6.0600 12256.5156
6.0700 11891.8732
6.0800 11757.1086
6.0900 13140.6200
6.1000 12507.3384
6.1100 12398.4040
6.1200 11509.8988
6.1300 11605.9580
6.1400 12104.6774
6.1500 12169.3542
6.1600 12109.5734
6.1700 12134.9456
6.1800 11848.3896
6.1900 11794.2850
6.2000 12504.6214
6.2100 11462.9292
6.2200 12124.5188
6.2300 11836.1064
6.2400 11935.2050
6.2500 11893.8670
6.2600 11444.5068
6.2700 11234.9620
6.2800 12559.4390
6.2900 12408.3812
6.3000 12593.8802
6.3100 11822.2972
6.3200 12674.2188
6.3300 11569.1386
6.3400 11968.0970
6.3500 11573.9176
6.3600 11841.5720
6.3700 11426.0224
6.3800 11446.8556
6.3900 11288.4268
6.4000 11262.5926
6.4100 12106.7250
6.4200 11400.6836
6.4300 11774.3682
6.4400 11222.1782
6.4500 11014.7928
6.4600 11178.5064
6.4700 11250.4506
6.4800 11240.9882
6.4900 11309.1634
6.5000 11109.6110
6.5100 11092.4002
6.5200 11010.1868
6.5300 11461.7442
6.5400 11972.3164
6.5500 11800.7538
6.5600 11072.7986
6.5700 11322.3684
6.5800 11320.1568
6.5900 11496.6258
6.6000 11529.4556
6.6100 11793.0246
6.6200 11462.6790
6.6300 10735.9578
6.6400 11461.5276
6.6500 11343.4398
6.6600 12518.6940
6.6700 11244.7012
6.6800 11599.3408
6.6900 11622.2158
6.7000 12088.9466
6.7100 12808.7688
6.7200 11453.8848
6.7300 11171.7000
6.7400 11504.9102
6.7500 11092.1478
6.7600 11038.1684
6.7700 11328.4698
6.7800 10653.6142
6.7900 11186.9996
6.8000 11779.6560
6.8100 11788.6312
6.8200 11453.3082
6.8300 11920.5974
6.8400 10997.5158
6.8500 11757.2704
6.8600 11779.2978
6.8700 11026.8188
6.8800 11469.2820
6.8900 11620.3044
6.9000 12007.7210
6.9100 11510.9374
6.9200 11479.1402
6.9300 12304.2744
6.9400 11681.8044
6.9500 11671.0744
6.9600 12322.6826
6.9700 12115.4398
6.9800 11031.3792
6.9900 11196.1212
7.0000 11267.3594
7.0100 11197.9930
7.0200 11818.0918
7.0300 12062.0504
7.0400 11754.6346
7.0500 11401.8900
7.0600 11068.8986
7.0700 12012.0930
7.0800 11712.7634
7.0900 11085.9374
7.1000 10745.3878
7.1100 11341.6474
7.1200 11863.8376
7.1300 11364.5192
7.1400 11484.2092
7.1500 11025.9206
7.1600 11857.2926
7.1700 11619.9728
7.1800 10928.5634
7.1900 11450.1556
7.2000 11591.3146
7.2100 11088.2070
7.2200 12127.7304
7.2300 12223.4742
7.2400 11650.9826
7.2500 11401.2736
7.2600 11905.0660
7.2700 12282.7078
7.2800 11517.8710
7.2900 10937.2812
7.3000 11788.9608
7.3100 11492.3024
7.3200 11312.3058
7.3300 11076.1118
7.3400 10676.9124
7.3500 10990.7848
7.3600 11568.8192
7.3700 11565.4174
7.3800 11455.0670
7.3900 11730.9550
7.4000 11184.0932
7.4100 11692.9240
7.4200 12046.0002
7.4300 10865.9730
7.4400 11022.4376
7.4500 11951.9898
7.4600 11252.7090
7.4700 12067.5170
7.4800 11790.8162
7.4900 11164.3330
7.5000 11378.3610
7.5100 11243.1784
7.5200 11018.6890
7.5300 11273.4710
7.5400 11248.5188
7.5500 11269.7926
7.5600 12004.7922
7.5700 11533.2662
7.5800 11967.8610
7.5900 11041.6402
7.6000 11130.3812
7.6100 11353.9672
7.6200 11358.3344
7.6300 11446.7244
7.6400 11619.4346
7.6500 11892.6982
7.6600 11894.8812
7.6700 11786.1054
7.6800 11647.9502
7.6900 12150.9562
7.7000 12020.4884
7.7100 11202.4252
7.7200 12127.5990
7.7300 11069.2516
7.7400 11987.5702
7.7500 11743.8518
7.7600 11965.5364
7.7700 11917.5292
7.7800 11443.1122
7.7900 12211.5042
7.8000 11577.0162
7.8100 11258.8756
7.8200 11411.0220
7.8300 11684.3710
7.8400 11317.0462
7.8500 11425.6236
7.8600 11784.7860
7.8700 10843.3522
7.8800 11789.9710
7.8900 12654.9978
7.9000 11773.4742
7.9100 11652.7262
7.9200 11529.6672
7.9300 11906.2114
7.9400 11754.8166
7.9500 11967.4256
7.9600 11985.7818
7.9700 11786.8794
7.9800 11644.3584
7.9900 11895.9310
8.0000 11960.3048
8.0100 11777.3458
8.0200 11516.3218
8.0300 11945.0836
8.0400 11628.1434
8.0500 11973.2260
8.0600 12139.2090
8.0700 11690.0258
8.0800 11581.3344
8.0900 12176.7640
8.1000 12115.5924
8.1100 11530.2632
8.1200 11323.8912
8.1300 11252.0436
8.1400 12192.4052
8.1500 12517.7460
8.1600 11493.1336
8.1700 11633.2204
8.1800 11779.9764
8.1900 11376.1312
8.2000 11844.5944
8.2100 11384.8286
8.2200 11442.9810
8.2300 11455.0862
8.2400 12192.7552
8.2500 11102.6418
8.2600 11667.5202
8.2700 10985.2284
8.2800 12163.0992
8.2900 11566.7846
8.3000 11581.9000
8.3100 11248.4406
8.3200 11384.8664
8.3300 12095.8974
8.3400 11479.7598
8.3500 11828.1982
8.3600 11937.1450
8.3700 11777.2796
8.3800 11991.6138
8.3900 12746.6462
8.4000 11176.1138
8.4100 11359.7362
8.4200 12178.3224
8.4300 11359.5124
8.4400 11984.3994
8.4500 11153.7252
8.4600 11788.0574
8.4700 12107.7556
8.4800 12044.5110
8.4900 12055.8390
8.5000 11300.6184
8.5100 12417.9066
8.5200 12001.9532
8.5300 11779.4088
8.5400 11882.9000
8.5500 11739.5040
8.5600 12116.5232
8.5700 12243.1416
8.5800 11746.1954
8.5900 11518.1976
8.6000 12043.4346
8.6100 11729.0416
8.6200 11451.2696
8.6300 11304.4820
8.6400 11388.0544
8.6500 11496.5708
8.6600 11777.3478
8.6700 12704.0202
8.6800 12272.9990
8.6900 12498.5728
8.7000 12534.5184
8.7100 12559.7412
8.7200 11956.6356
8.7300 12481.0424
8.7400 12967.5048
8.7500 12331.9876
8.7600 12802.7710
8.7700 12947.7794
8.7800 12225.3530
8.7900 13109.2082
8.8000 12848.7966
8.8100 13589.9048
8.8200 12978.2624
8.8300 13298.2646
8.8400 12385.8328
8.8500 13126.4486
8.8600 13462.6932
8.8700 12890.5742
8.8800 12896.8088
8.8900 13702.9592
8.9000 13204.6224
8.9100 13852.2970
8.9200 13775.9898
8.9300 13429.3834
8.9400 13891.7856
8.9500 14378.0030
8.9600 13657.9284
8.9700 15122.3856
8.9800 14038.6668
8.9900 14245.4956
9.0000 15152.8718
9.0100 15164.0636
9.0200 14523.7386
9.0300 15198.5626
9.0400 15481.4606
9.0500 15918.8680
9.0600 15977.6224
9.0700 15790.4450
9.0800 15851.9042
9.0900 15214.6708
9.1000 16047.3744
9.1100 17271.0428
9.1200 17357.4606
9.1300 17085.9172
9.1400 17343.8538
9.1500 17116.7602
9.1600 18781.5756
9.1700 18462.7624
9.1800 18101.2308
9.1900 18529.8890
9.2000 18975.5656
9.2100 20278.2024
9.2200 19373.1242
9.2300 20376.5992
9.2400 21407.0800
9.2500 21301.5686
9.2600 20847.5382
9.2700 21428.1880
9.2800 22358.2418
9.2900 23338.9018
9.3000 22987.3942
9.3100 23857.1350
9.3200 23889.5100
9.3300 24983.2866
9.3400 26565.3584
9.3500 25713.1450
9.3600 27024.5036
9.3700 27684.0984
9.3800 29244.8608
9.3900 28843.2882
9.4000 30030.2388
9.4100 31729.3234
9.4200 32435.3942
9.4300 32868.0704
9.4400 33902.5492
9.4500 35182.3324
9.4600 37165.0594
9.4700 36120.0318
9.4800 36715.3442
9.4900 37916.3452
9.5000 39352.0956
9.5100 39571.7610
9.5200 41346.6634
9.5300 41312.3494
9.5400 42610.7138
9.5500 42627.4658
9.5600 43671.3704
9.5700 45022.1680
9.5800 46573.7224
9.5900 47155.7698
9.6000 49200.8300
9.6100 51300.3580
9.6200 51448.5108
9.6300 52093.0338
9.6400 56826.1840
9.6500 56819.9504
9.6600 57067.7206
9.6700 60824.5564
9.6800 64547.8760
9.6900 65085.9822
9.7000 67872.8272
9.7100 71324.8942
9.7200 76972.3552
9.7300 75727.9216
9.7400 80058.8786
9.7500 80292.9932
9.7600 83763.6882
9.7700 85162.2722
9.7800 86590.9994
9.7900 85164.7624
9.8000 85034.1634
9.8100 84910.5144
9.8200 83757.4300
9.8300 80578.8330
9.8400 78638.9648
9.8500 76517.2852
9.8600 72320.8902
9.8700 69482.3324
9.8800 65367.6188
9.8900 60887.8500
9.9000 55696.5372
9.9100 51046.8018
9.9200 46006.5470
9.9300 42789.0666
9.9400 39309.8510
9.9500 35067.2932
9.9600 32801.4486
9.9700 30317.2892
9.9800 28766.8172
9.9900 27281.1686
10.0000 25702.5330
10.0100 25807.0110
10.0200 26119.1324
10.0300 27106.3700
10.0400 27235.4594
10.0500 28085.6384
10.0600 27573.7182
10.0700 27696.0674
10.0800 26803.9714
10.0900 27754.8768
10.1000 27057.7982
10.1100 29184.3302
10.1200 28798.5698
10.1300 30013.8184
10.1400 30369.8914
10.1500 30924.3612
10.1600 31833.8298
10.1700 32154.3498
10.1800 33979.1178
10.1900 34653.8086
10.2000 37188.2690
10.2100 37139.5996
10.2200 38731.3924
10.2300 38579.2644
10.2400 41639.6566
10.2500 42738.2486
10.2600 42992.6840
10.2700 44963.0982
10.2800 46255.5502
10.2900 48026.2166
10.3000 51462.3292
10.3100 51881.9946
10.3200 52526.7862
10.3300 55376.3590
10.3400 57881.4982
10.3500 60640.6534
10.3600 61326.4200
10.3700 63898.2706
10.3800 66221.1914
10.3900 69684.0820
10.4000 70478.9550
10.4100 73139.6892
10.4200 76699.3570
10.4300 80737.7522
10.4400 83109.3424
10.4500 88862.2884
10.4600 90833.4554
10.4700 94379.9480
10.4800 99320.9310
10.4900 101008.8216
10.5000 107655.1026
10.5100 112218.2210
10.5200 116685.6282
10.5300 123067.0248
10.5400 130373.8282
10.5500 134519.6290
10.5600 139939.7298
10.5700 147561.4420
10.5800 151308.3658
10.5900 154291.2272
10.6000 160713.4114
10.6100 166808.1054
10.6200 168353.2064
10.6300 172591.5202
10.6400 172148.7630
10.6500 175075.6348
10.6600 171645.7846
10.6700 166240.4460
10.6800 162108.6752
10.6900 155368.2780
10.7000 150082.6172
10.7100 140211.7024
10.7200 133359.8308
10.7300 122434.1960
10.7400 111752.9052
10.7500 101120.8334
10.7600 89945.7520
10.7700 79805.2978
10.7800 72760.0180
10.7900 64757.8532
10.8000 55727.1200
10.8100 49221.6756
10.8200 42184.7534
10.8300 38359.6110
10.8400 36474.5442
10.8500 33729.6184
10.8600 32267.0918
10.8700 31255.3710
10.8800 30783.1136
10.8900 28842.8344
10.9000 28804.5694
10.9100 28964.4186
10.9200 29154.3884
10.9300 28967.3014
10.9400 28092.2058
10.9500 27588.6942
10.9600 28470.5078
10.9700 29065.6534
10.9800 28900.0976
10.9900 31038.1796
11.0000 31006.8074
11.0100 29731.8482
11.0200 30322.5322
11.0300 32293.4366
11.0400 31730.9448
11.0500 31344.2750
11.0600 32546.9768
11.0700 33749.7578
11.0800 33055.0964
11.0900 32220.7336
11.1000 34852.6368
11.1100 35247.4162
11.1200 36386.3688
11.1300 34680.2286
11.1400 34917.3828
11.1500 34506.6570
11.1600 35362.7522
11.1700 33779.1320
11.1800 31596.7854
11.1900 32006.2662
11.2000 31927.1382
11.2100 29345.2658
11.2200 27659.2346
11.2300 25283.4432
11.2400 24904.1708
11.2500 23966.8884
11.2600 23214.6892
11.2700 20473.3908
11.2800 20146.1426
11.2900 19312.3982
11.3000 17851.1718
11.3100 16710.6700
11.3200 16618.9748
11.3300 15391.5608
11.3400 15105.9254
11.3500 14565.3758
11.3600 13704.7160
11.3700 13920.3502
11.3800 13549.0458
11.3900 13343.8864
11.4000 13814.3148
11.4100 12359.7910
11.4200 12096.6664
11.4300 12268.8486
11.4400 12865.7480
11.4500 12094.7774
11.4600 12065.8804
11.4700 12392.4846
11.4800 13516.8854
11.4900 13140.4876
11.5000 12481.1768
11.5100 12043.5668
11.5200 12749.6866
11.5300 12176.9938
11.5400 12145.3634
11.5500 12832.2866
11.5600 12844.6290
11.5700 12415.9840
11.5800 11700.0834
11.5900 12442.1000
11.6000 12631.7302
11.6100 12842.5202
11.6200 12450.5798
11.6300 12116.6942
11.6400 11746.9024
11.6500 12330.6874
11.6600 12224.5514
11.6700 13103.9642
11.6800 13132.9672
11.6900 13408.3384
11.7000 12859.5092
11.7100 13106.5490
11.7200 13492.8680
11.7300 13994.0928
11.7400 13525.1200
11.7500 13047.8118
11.7600 13381.0730
11.7700 13656.5114
11.7800 14409.3700
11.7900 14402.1536
11.8000 14252.4546
11.8100 14832.2286
11.8200 14038.5162
11.8300 13980.6916
11.8400 13812.0504
11.8500 14283.2438
11.8600 14425.7222
11.8700 14599.4640
11.8800 13974.6898
11.8900 14244.5912
11.9000 14427.2308
11.9100 14152.6886
11.9200 14457.0852
11.9300 14471.6654
11.9400 13284.6212
11.9500 13619.2434
11.9600 14550.9796
11.9700 13359.3618
11.9800 13768.7704
11.9900 13703.9082
12.0000 13460.3658
12.0100 13014.1826
12.0200 12389.3108
12.0300 12361.8124
12.0400 12837.7554
12.0500 11551.5076
12.0600 12940.8426
12.0700 12157.6588
12.0800 11874.8586
12.0900 11444.3960
12.1000 11605.8798
12.1100 11337.2020
12.1200 10897.5992
12.1300 10801.5086
12.1400 11113.8570
12.1500 11095.2046
12.1600 10693.5720
12.1700 11129.8564
12.1800 11023.0286
12.1900 10958.7046
12.2000 9936.1572
12.2100 10324.7406
12.2200 10365.4358
12.2300 10249.5372
12.2400 9834.4686
12.2500 9599.7824
12.2600 9400.1586
12.2700 10041.8346
12.2800 9890.4562
12.2900 9698.6582
12.3000 9737.4004
12.3100 10005.6428
12.3200 9426.6092
12.3300 9986.8092
12.3400 9794.2058
12.3500 9498.1446
12.3600 9832.5032
12.3700 9418.1102
12.3800 9684.6406
12.3900 10020.2738
12.4000 9902.6744
12.4100 9807.6010
12.4200 9313.3912
12.4300 9795.8750
12.4400 9806.6538
12.4500 9925.0244
12.4600 9474.8626
12.4700 9715.9454
12.4800 9564.5772
12.4900 9141.4866
12.5000 10086.1948
12.5100 9330.2542
12.5200 9242.8050
12.5300 9063.1104
12.5400 9291.0004
12.5500 9475.9542
12.5600 9639.5112
12.5700 9849.0276
12.5800 10607.0954
12.5900 10187.4034
12.6000 10093.5658
12.6100 10020.3878
12.6200 10330.4066
12.6300 10142.3350
12.6400 10058.6538
12.6500 9343.7256
12.6600 9392.9626
12.6700 10156.8828
12.6800 10155.2500
12.6900 10488.1236
12.7000 10198.7692
12.7100 9683.0730
12.7200 10328.7048
12.7300 10871.2168
12.7400 10638.8234
12.7500 10389.3840
12.7600 10455.0170
12.7700 10149.1434
12.7800 10162.5082
12.7900 10357.4574
12.8000 10529.6530
12.8100 11462.5468
12.8200 10391.2038
12.8300 11262.0504
12.8400 11041.8814
12.8500 11702.5584
12.8600 11339.1306
12.8700 12019.3390
12.8800 12072.2534
12.8900 12890.2292
12.9000 12080.0426
12.9100 12382.7668
12.9200 12120.8638
12.9300 12771.3348
12.9400 13060.6314
12.9500 12747.2290
12.9600 12357.7006
12.9700 12876.9756
12.9800 13055.5572
12.9900 13611.4064
13.0000 13458.2774
13.0100 13929.1962
13.0200 13803.1108
13.0300 14103.9470
13.0400 13574.0866
13.0500 13904.0476
13.0600 13948.0174
13.0700 14899.2716
13.0800 13553.2054
13.0900 13481.1218
13.1000 12467.9260
13.1100 13060.5438
13.1200 13408.3170
13.1300 12821.6014
13.1400 12526.2400
13.1500 12060.4788
13.1600 11621.0164
13.1700 11225.9074
13.1800 11715.3026
13.1900 11636.4492
13.2000 10979.8624
13.2100 10332.2500
13.2200 11257.2764
13.2300 11572.2656
13.2400 11796.6776
13.2500 11277.6988
13.2600 11423.8424
13.2700 12919.6076
13.2800 12224.8392
13.2900 12289.9464
13.3000 12213.0992
13.3100 12763.0840
13.3200 11479.5308
13.3300 12423.1782
13.3400 12210.4726
13.3500 13188.6068
13.3600 12586.2894
13.3700 14252.8056
13.3800 13787.8388
13.3900 14223.3480
13.4000 13922.1294
13.4100 16207.3792
13.4200 15895.2026
13.4300 15698.2472
13.4400 16169.6350
13.4500 16330.9336
13.4600 16254.6864
13.4700 17070.3206
13.4800 17606.1768
13.4900 17207.7392
13.5000 18514.9922
13.5100 19035.0158
13.5200 18526.9532
13.5300 19172.8882
13.5400 19751.6682
13.5500 20151.8250
13.5600 20522.2128
13.5700 21373.4294
13.5800 20642.5598
13.5900 20691.7216
13.6000 20775.2218
13.6100 19842.3768
13.6200 20207.0028
13.6300 20136.0412
13.6400 18231.7566
13.6500 18117.3096
13.6600 17945.4692
13.6700 17022.1426
13.6800 16398.2472
13.6900 15389.0218
13.7000 14087.0432
13.7100 13935.1908
13.7200 13448.8760
13.7300 12950.8636
13.7400 12109.7646
13.7500 11380.7108
13.7600 11257.6782
13.7700 11569.4214
13.7800 10706.6518
13.7900 10734.8032
13.8000 10942.8944
13.8100 10346.0540
13.8200 9829.8554
13.8300 10269.1782
13.8400 10678.3732
13.8500 9900.3468
13.8600 10190.1724
13.8700 9526.2726
13.8800 10798.3774
13.8900 10602.3356
13.9000 10237.9344
13.9100 9556.0720
13.9200 9074.4650
13.9300 9658.1798
13.9400 10291.7868
13.9500 9984.8440
13.9600 9682.3812
13.9700 9911.4848
13.9800 9874.0418
13.9900 10075.4090
14.0000 9706.1554
14.0100 9665.7338
14.0200 10905.3090
14.0300 9880.0008
14.0400 10320.9808
14.0500 10092.4958
14.0600 10145.1782
14.0700 9923.4782
14.0800 9864.8986
14.0900 10938.6118
14.1000 10826.6642
14.1100 10568.2760
14.1200 10839.5070
14.1300 10853.3204
14.1400 10375.8870
14.1500 11227.6560
14.1600 11216.3208
14.1700 10798.9206
14.1800 11086.2610
14.1900 10946.1182
14.2000 11593.8162
14.2100 12570.8536
14.2200 11944.9016
14.2300 12273.6694
14.2400 12267.8690
14.2500 13296.7458
14.2600 12762.9760
14.2700 12450.1964
14.2800 12346.2444
14.2900 12277.1332
14.3000 12928.9216
14.3100 13065.5690
14.3200 13702.0580
14.3300 14233.0516
14.3400 13048.4120
14.3500 14294.3950
14.3600 14320.6736
14.3700 14627.1728
14.3800 14716.3422
14.3900 14369.1244
14.4000 15603.2614
14.4100 14746.4956
14.4200 14869.0938
14.4300 14755.5124
14.4400 15612.4614
14.4500 15297.1070
14.4600 14710.0494
14.4700 15138.3108
14.4800 14668.8558
14.4900 15146.7702
14.5000 15263.4796
14.5100 15366.2882
14.5200 14912.0920
14.5300 14017.6484
14.5400 13597.0998
14.5500 13530.7994
14.5600 13555.6986
14.5700 12785.6120
14.5800 12262.2600
14.5900 11976.1250
14.6000 12184.1318
14.6100 11284.0760
14.6200 10276.4068
14.6300 10515.9862
14.6400 10127.3326
14.6500 10636.1612
14.6600 10916.6952
14.6700 10430.4790
14.6800 10318.7866
14.6900 10196.2382
14.7000 10454.3722
14.7100 10094.6676
14.7200 9291.8346
14.7300 9504.0324
14.7400 9473.3226
14.7500 9341.3920
14.7600 9430.8086
14.7700 9869.3828
14.7800 9797.5962
14.7900 9745.0094
14.8000 9526.3376
14.8100 9330.9092
14.8200 8610.2570
14.8300 8573.0234
14.8400 9527.8828
14.8500 9469.0176
14.8600 9183.2378
14.8700 9116.5740
14.8800 9213.8376
14.8900 9780.6752
14.9000 9270.6360
14.9100 8833.8440
14.9200 9447.5494
14.9300 9382.0842
14.9400 9152.1190
14.9500 9124.4038
14.9600 8827.1718
14.9700 9185.3384
14.9800 9483.2224
14.9900 9335.1410
15.0000 9127.5788
15.0100 9231.8522
15.0200 8886.2670
15.0300 9574.7234
15.0400 9039.0238
15.0500 9506.7830
15.0600 9461.7442
15.0700 9306.0608
15.0800 9098.2116
15.0900 9275.4822
15.1000 10228.4892
15.1100 8907.7546
15.1200 9098.5698
15.1300 9799.7142
15.1400 9441.4948
15.1500 10249.3104
15.1600 9599.2614
15.1700 9939.0656
15.1800 10392.5964
15.1900 10567.0350
15.2000 9641.8122
15.2100 10356.5368
15.2200 10322.0836
15.2300 10256.2622
15.2400 10549.3134
15.2500 10728.9866
15.2600 9759.2184
15.2700 10138.7756
15.2800 10886.5672
15.2900 10872.9736
15.3000 11215.4724
15.3100 12130.0060
15.3200 12491.3014
15.3300 12216.2242
15.3400 12002.1068
15.3500 12404.2928
15.3600 12701.9918
15.3700 13369.2006
15.3800 13295.9584
15.3900 13073.0316
15.4000 13862.7410
15.4100 14112.0108
15.4200 14599.2818
15.4300 15169.8538
15.4400 15118.3868
15.4500 15322.0550
15.4600 15859.0526
15.4700 16099.9908
15.4800 15917.0848
15.4900 15165.7736
15.5000 16423.8850
15.5100 15824.6510
15.5200 16652.2766
15.5300 15898.7894
15.5400 16637.2274
15.5500 16452.6590
15.5600 15626.1770
15.5700 14930.4474
15.5800 15518.7876
15.5900 16424.8952
15.6000 14906.6112
15.6100 14728.6540
15.6200 14828.0884
15.6300 14645.4438
15.6400 13326.6592
15.6500 13519.2322
15.6600 13530.4524
15.6700 13672.4212
15.6800 12194.8018
15.6900 12130.3284
15.7000 11934.5754
15.7100 12785.9304
15.7200 12781.9000
15.7300 12043.5334
15.7400 12320.3258
15.7500 12137.5508
15.7600 12613.1430
15.7700 12415.1398
15.7800 12577.9642
15.7900 12757.0332
15.8000 13134.4574
15.8100 13040.2882
15.8200 13175.0050
15.8300 13354.3376
15.8400 13732.3904
15.8500 13934.0160
15.8600 14489.6566
15.8700 14455.5980
15.8800 14525.3896
15.8900 15860.3740
15.9000 15968.8182
15.9100 16631.9052
15.9200 15896.4884
15.9300 16881.6304
15.9400 17868.8274
15.9500 18033.3638
15.9600 18953.3712
15.9700 19686.6862
15.9800 20162.0606
15.9900 20358.3598
16.0000 21540.3788
16.0100 22382.0394
16.0200 22387.4126
16.0300 22690.5070
16.0400 23239.8296
16.0500 23663.0494
16.0600 24044.4174
16.0700 24324.3774
16.0800 24044.3400
16.0900 25322.8474
16.1000 25632.7942
16.1100 24595.6320
16.1200 25430.0924
16.1300 23836.6232
16.1400 22734.8552
16.1500 22726.7150
16.1600 21395.1762
16.1700 20797.2636
16.1800 19701.3530
16.1900 19404.4434
16.2000 18059.2468
16.2100 15976.1962
16.2200 15523.3784
16.2300 14240.9606
16.2400 14541.4764
16.2500 14209.9528
16.2600 12753.6306
16.2700 12561.9028
16.2800 11354.0974
16.2900 11307.9896
16.3000 11060.7636
16.3100 11310.5500
16.3200 11312.9516
16.3300 11459.3912
16.3400 10720.5170
16.3500 11164.3108
16.3600 11432.5308
16.3700 10439.9770
16.3800 10579.1230
16.3900 10599.5066
16.4000 10122.7640
16.4100 11216.3014
16.4200 10724.3500
16.4300 11169.1090
16.4400 11228.7628
16.4500 11087.0728
16.4600 11265.7908
16.4700 11485.4512
16.4800 12072.7488
16.4900 11308.8268
16.5000 11587.2792
16.5100 11548.9166
16.5200 12279.6498
16.5300 12442.4754
16.5400 12849.1668
16.5500 13216.8030
16.5600 13396.7642
16.5700 13777.0508
16.5800 14047.3622
16.5900 14318.5130
16.6000 14785.5652
16.6100 14615.8386
16.6200 14907.3304
16.6300 16134.6476
16.6400 15116.3656
16.6500 16187.2844
16.6600 16982.5226
16.6700 16932.8450
16.6800 17589.9008
16.6900 18429.2054
16.7000 18938.4624
16.7100 20914.9252
16.7200 20425.5696
16.7300 22087.1318
16.7400 22873.2910
16.7500 22034.2936
16.7600 23285.5000
16.7700 23653.4830
16.7800 24758.0708
16.7900 24008.9904
16.8000 23705.4972
16.8100 24270.6848
16.8200 24570.2780
16.8300 25243.6178
16.8400 24716.3838
16.8500 23544.3950
16.8600 23934.7798
16.8700 24170.0826
16.8800 22798.1526
16.8900 22104.3762
16.9000 20538.0412
16.9100 20818.6482
16.9200 19821.5638
16.9300 17318.2576
16.9400 18097.9858
16.9500 16543.2974
16.9600 17143.9392
16.9700 16329.8808
16.9800 14868.9290
16.9900 13669.6290
17.0000 14057.4046
17.0100 13527.1402
17.0200 13603.7790
17.0300 13254.4748
17.0400 12848.0784
17.0500 13069.3034
17.0600 13467.4032
17.0700 14194.4600
17.0800 13279.2888
17.0900 12801.7466
17.1000 13098.6134
17.1100 13062.0290
17.1200 13497.8262
17.1300 14264.8620
17.1400 14257.6080
17.1500 14322.4792
17.1600 14167.9332
17.1700 15177.8962
17.1800 15130.6936
17.1900 15789.3606
17.2000 16797.7306
17.2100 17556.4860
17.2200 17224.4812
17.2300 17910.4228
17.2400 18597.0948
17.2500 19406.3986
17.2600 19520.5688
17.2700 20239.4592
17.2800 20365.8712
17.2900 21716.5996
17.3000 23569.3624
17.3100 23684.3994
17.3200 24905.3752
17.3300 24829.9580
17.3400 26313.3200
17.3500 26659.8572
17.3600 27144.4986
17.3700 28823.3418
17.3800 29086.3484
17.3900 30290.6534
17.4000 29734.6660
17.4100 30094.7876
17.4200 30641.3248
17.4300 30097.7030
17.4400 30440.4764
17.4500 30475.7812
17.4600 28475.9704
17.4700 28187.9924
17.4800 28292.1020
17.4900 26243.1884
17.5000 26138.5092
17.5100 25702.3194
17.5200 22443.5222
17.5300 22599.0132
17.5400 20907.2510
17.5500 19227.7038
17.5600 18553.6764
17.5700 17845.5608
17.5800 16444.7164
17.5900 15130.6152
17.6000 14807.8146
17.6100 13308.6100
17.6200 12659.0840
17.6300 12343.4122
17.6400 11775.5392
17.6500 10850.9064
17.6600 11159.5560
17.6700 10432.4026
17.6800 10547.5118
17.6900 11040.0370
17.7000 10162.8602
17.7100 9837.0840
17.7200 9991.4450
17.7300 10010.8978
17.7400 10102.3000
17.7500 9471.3420
17.7600 9300.6520
17.7700 9512.5072
17.7800 9863.1622
17.7900 9286.3984
17.8000 9535.1868
17.8100 9490.4948
17.8200 9213.7064
17.8300 9374.6866
17.8400 9078.0100
17.8500 9198.8372
17.8600 9283.6690
17.8700 8995.1620
17.8800 9131.7932
17.8900 10003.3366
17.9000 9149.5646
17.9100 9516.5110
17.9200 10559.8938
17.9300 9613.4848
17.9400 9526.5992
17.9500 9687.2254
17.9600 10676.7060
17.9700 10138.3636
17.9800 9781.2236
17.9900 10044.2850
18.0000 9919.9584
18.0100 10079.8208
18.0200 10057.1746
18.0300 9731.5816
18.0400 10894.9880
18.0500 10116.5456
18.0600 11538.7960
18.0700 10769.9392
18.0800 10442.1874
18.0900 10910.8174
18.1000 11079.2836
18.1100 10381.3548
18.1200 10605.5074
18.1300 10811.3586
18.1400 11645.6736
18.1500 10982.7372
18.1600 11149.6206
18.1700 11475.5260
18.1800 11200.5452
18.1900 10893.0604
18.2000 10949.5422
18.2100 10645.9046
18.2200 10964.4786
18.2300 10372.1212
18.2400 10817.8620
18.2500 11067.2200
18.2600 11162.1440
18.2700 11053.5360
18.2800 11395.2768
18.2900 10303.8808
18.3000 11499.5432
18.3100 11435.5632
18.3200 11449.7722
18.3300 11834.1278
18.3400 11476.5178
18.3500 11737.4360
18.3600 11786.2030
18.3700 12726.1596
18.3800 12678.1098
18.3900 13133.2784
18.4000 12947.1090
18.4100 14410.1634
18.4200 13614.3066
18.4300 13161.5988
18.4400 13492.0674
18.4500 14934.9478
18.4600 15450.0234
18.4700 15960.7554
18.4800 16162.8062
18.4900 17602.4556
18.5000 17348.9706
18.5100 18341.1906
18.5200 17890.5844
18.5300 19017.1408
18.5400 20694.4254
18.5500 21272.4344
18.5600 22067.7226
18.5700 22999.2778
18.5800 23476.2960
18.5900 25457.8186
18.6000 25860.4024
18.6100 26367.5028
18.6200 27616.1276
18.6300 29624.9532
18.6400 31445.8374
18.6500 33120.1944
18.6600 33361.6394
18.6700 34644.2220
18.6800 36466.9312
18.6900 38120.3206
18.7000 39397.8556
18.7100 42566.8986
18.7200 43665.9464
18.7300 44099.9104
18.7400 47071.2932
18.7500 49388.0250
18.7600 51397.2046
18.7700 53015.3076
18.7800 53767.2322
18.7900 55783.1624
18.8000 57441.5690
18.8100 57481.5348
18.8200 58955.1472
18.8300 60174.3124
18.8400 59603.0762
18.8500 59996.3500
18.8600 60552.1280
18.8700 58450.7812
18.8800 56827.9786
18.8900 55894.1244
18.9000 52570.9188
18.9100 51634.8876
18.9200 49378.8086
18.9300 47436.0922
18.9400 43090.4134
18.9500 42185.1278
18.9600 40187.8296
18.9700 38653.8370
18.9800 34927.0712
18.9900 32742.9280
19.0000 30715.7288
19.0100 28673.8546
19.0200 27195.2046
19.0300 25040.8630
19.0400 23649.4242
19.0500 23362.7564
19.0600 21702.5676
19.0700 20367.6188
19.0800 19338.6170
19.0900 19495.6238
19.1000 18418.0684
19.1100 18335.3068
19.1200 17286.7636
19.1300 17663.2630
19.1400 18698.5922
19.1500 17446.2198
19.1600 17238.5640
19.1700 17820.1396
19.1800 18070.6380
19.1900 18133.1442
19.2000 17645.6502
19.2100 18938.8978
19.2200 18796.4070
19.2300 19363.2630
19.2400 19534.0698
19.2500 21058.1298
19.2600 21444.8466
19.2700 21916.0888
19.2800 22643.6076
19.2900 23522.8394
19.3000 24643.7296
19.3100 24742.9668
19.3200 25809.6008
19.3300 28208.4412
19.3400 28173.2604
19.3500 29604.7588
19.3600 30913.3790
19.3700 31914.6668
19.3800 33783.2478
19.3900 35977.3274
19.4000 36764.0258
19.4100 39368.2942
19.4200 40719.5068
19.4300 43247.3186
19.4400 44323.0712
19.4500 46350.1140
19.4600 49609.3750
19.4700 49116.4876
19.4800 50987.3942
19.4900 52302.2258
19.5000 53532.3160
19.5100 55718.9046
19.5200 57034.2652
19.5300 56793.6686
19.5400 58824.3246
19.5500 58500.9970
19.5600 59378.4668
19.5700 57332.9550
19.5800 52991.4550
19.5900 51492.5740
19.6000 51037.6302
19.6100 48904.7526
19.6200 46668.3308
19.6300 44650.8666
19.6400 42460.6486
19.6500 37319.7632
19.6600 34659.7534
19.6700 32634.6802
19.6800 31005.9144
19.6900 27631.0100
19.7000 25697.5748
19.7100 24057.8410
19.7200 22091.7664
19.7300 20256.5796
19.7400 19313.3138
19.7500 18509.1186
19.7600 18151.6764
19.7700 16669.4010
19.7800 15684.5428
19.7900 15115.1804
19.8000 14019.7896
19.8100 14200.9572
19.8200 14023.7152
19.8300 13400.5706
19.8400 13424.2248
19.8500 12995.5872
19.8600 12079.7272
19.8700 11794.4722
19.8800 12513.6628
19.8900 11712.5854
19.9000 12130.7648
19.9100 11446.5638
19.9200 11351.5848
19.9300 11787.4156
19.9400 12330.6458
19.9500 11230.4210
19.9600 11462.2538
19.9700 11384.8684
19.9800 11162.5172
19.9900 11445.8374
20.0000 11754.5268
20.0100 12402.0680
20.0200 12257.8562
20.0300 11727.5004
20.0400 11081.4148
20.0500 13072.3744
20.0600 12313.8010
20.0700 12004.3752
20.0800 11932.9264
20.0900 12400.3032
20.1000 12660.8154
20.1100 12925.1668
20.1200 13203.1840
20.1300 13263.9038
20.1400 13178.1210
20.1500 13856.3374
20.1600 14007.3812
20.1700 14220.7164
20.1800 14211.4136
20.1900 14645.9838
20.2000 15262.0900
20.2100 14797.9452
20.2200 14813.6230
20.2300 15897.7794
20.2400 16153.2034
20.2500 16372.8810
20.2600 16683.2590
20.2700 17309.4096
20.2800 17154.5512
20.2900 17618.8640
20.3000 17407.6152
20.3100 18720.9126
20.3200 19863.7736
20.3300 19989.7848
20.3400 20783.3496
20.3500 20307.3100
20.3600 20324.6684
20.3700 21344.3238
20.3800 22163.0250
20.3900 22442.0166
20.4000 23674.7864
20.4100 23757.9610
20.4200 24534.8368
20.4300 26342.9280
20.4400 28086.2772
20.4500 29497.3734
20.4600 30470.3206
20.4700 30494.1284
20.4800 32220.1944
20.4900 33941.3208
20.5000 36120.6176
20.5100 37364.6770
20.5200 36408.1868
20.5300 38322.8922
20.5400 39820.7804
20.5500 41257.2550
20.5600 41259.9610
20.5700 41998.1852
20.5800 43513.5092
20.5900 43426.6480
20.6000 42392.0858
20.6100 44464.2944
20.6200 42592.5252
20.6300 42921.8384
20.6400 42574.3896
20.6500 40021.7774
20.6600 39146.7286
20.6700 38297.2778
20.6800 34810.1644
20.6900 32936.0880
20.7000 32011.8388
20.7100 29874.0966
20.7200 27887.0930
20.7300 26302.6936
20.7400 23925.7284
20.7500 22281.6468
20.7600 21596.7326
20.7700 21164.4042
20.7800 19008.6996
20.7900 18917.4886
20.8000 19130.0944
20.8100 17865.9606
20.8200 17596.8120
20.8300 16256.5968
20.8400 16038.3728
20.8500 16092.3544
20.8600 17069.7164
20.8700 16894.0786
20.8800 18336.3302
20.8900 17236.0718
20.9000 18340.1306
20.9100 18784.6782
20.9200 17042.7480
20.9300 17921.2178
20.9400 19055.8086
20.9500 20069.8182
20.9600 20234.3688
20.9700 21249.3144
20.9800 22364.1704
20.9900 22551.5136
21.0000 22350.0428
21.0100 24532.5196
21.0200 24639.3718
21.0300 26345.9350
21.0400 26080.9834
21.0500 28223.9136
21.0600 28054.2154
21.0700 29307.7514
21.0800 31165.6352
21.0900 32235.5814
21.1000 34139.9740
21.1100 36894.7672
21.1200 39383.3414
21.1300 39296.8912
21.1400 41563.7940
21.1500 42756.2988
21.1600 46392.0450
21.1700 48675.0448
21.1800 49526.5950
21.1900 51065.0350
21.2000 52066.6098
21.2100 55535.4818
21.2200 58054.7852
21.2300 59856.8684
21.2400 60431.0058
21.2500 64250.1058
21.2600 62864.9332
21.2700 64857.9956
21.2800 63932.9916
21.2900 62931.1198
21.3000 64609.0536
21.3100 66111.8082
21.3200 65261.4584
21.3300 62352.1200
21.3400 62200.6430
21.3500 58632.7800
21.3600 57262.3780
21.3700 55090.1368
21.3800 51968.6158
21.3900 48150.5086
21.4000 47424.7274
21.4100 45511.6088
21.4200 42059.8144
21.4300 41030.2368
21.4400 37722.4934
21.4500 37331.5430
21.4600 36903.5970
21.4700 35420.4672
21.4800 36661.7636
21.4900 35992.5740
21.5000 34994.3034
21.5100 34569.5720
21.5200 32947.1740
21.5300 34929.8258
21.5400 34498.8728
21.5500 36187.2152
21.5600 36324.5362
21.5700 37036.3688
21.5800 38702.2338
21.5900 40576.6968
21.6000 39339.4734
21.6100 40874.8006
21.6200 40909.0536
21.6300 38983.6386
21.6400 40067.0776
21.6500 41535.1074
21.6600 42766.7400
21.6700 42386.4746
21.6800 41756.4128
21.6900 42479.0690
21.7000 41679.7282
21.7100 39811.2630
21.7200 40216.5080
21.7300 38903.1006
21.7400 38130.4932
21.7500 38835.9986
21.7600 37433.0974
21.7700 35521.3868
21.7800 35223.4334
21.7900 34085.6710
21.8000 31540.0228
21.8100 32147.7560
21.8200 30154.3416
21.8300 27833.0932
21.8400 25994.3482
21.8500 24701.8514
21.8600 23546.7042
21.8700 22398.5026
21.8800 21910.9436
21.8900 20782.9264
21.9000 20126.7416
21.9100 17765.9464
21.9200 16801.1810
21.9300 16763.5946
21.9400 16030.4636
21.9500 15604.9022
21.9600 15316.3086
21.9700 15056.2988
21.9800 14791.1978
21.9900 14547.6796
22.0000 13409.0444
22.0100 12665.2680
22.0200 12592.6584
22.0300 12861.9120
22.0400 13048.0570
22.0500 12365.9658
22.0600 12742.6666
22.0700 12114.0034
22.0800 12212.3882
22.0900 12557.7250
22.1000 12574.8566
22.1100 12803.2898
22.1200 13080.1860
22.1300 13332.1828
22.1400 13098.4996
22.1500 12303.0284
22.1600 12920.1254
22.1700 12973.6736
22.1800 12153.8046
22.1900 12697.0194
22.2000 12704.6854
22.2100 13579.3630
22.2200 13834.2468
22.2300 12567.6340
22.2400 13560.3698
22.2500 13076.9756
22.2600 12928.9774
22.2700 12574.4618
22.2800 13039.8142
22.2900 13024.6918
22.3000 12668.1682
22.3100 12265.5844
22.3200 13127.9886
22.3300 13080.6428
22.3400 12928.9602
22.3500 12318.2668
22.3600 12369.8934
22.3700 11892.6330
22.3800 12301.4008
22.3900 12592.5262
22.4000 11909.6344
22.4100 11949.1282
22.4200 10745.4082
22.4300 11311.5020
22.4400 11420.2698
22.4500 11273.4172
22.4600 11404.0650
22.4700 10844.3502
22.4800 10556.6742
22.4900 10497.7294
22.5000 10199.0376
22.5100 10797.2636
22.5200 10296.0062
22.5300 10834.0148
22.5400 10017.8782
22.5500 10600.5016
22.5600 10718.5334
22.5700 10441.8314
22.5800 10475.2920
22.5900 10235.0270
22.6000 10305.7618
22.6100 10130.2196
22.6200 10492.4368
22.6300 10919.6524
22.6400 10295.4142
22.6500 11387.2966
22.6600 11001.6724
22.6700 10253.2970
22.6800 10960.1482
22.6900 11038.1490
22.7000 11197.9492
22.7100 10499.7966
22.7200 10899.0976
22.7300 10507.7606
22.7400 11177.1036
22.7500 11744.7926
22.7600 11969.6584
22.7700 10576.5930
22.7800 12100.0600
22.7900 12037.7350
22.8000 12004.0262
22.8100 12640.7878
22.8200 12400.9094
22.8300 11988.1714
22.8400 12716.0228
22.8500 12622.3378
22.8600 13429.0874
22.8700 13648.3674
22.8800 13416.9332
22.8900 13999.2666
22.9000 13548.5432
22.9100 13369.9646
22.9200 14451.4872
22.9300 14811.0922
22.9400 13918.5324
22.9500 14888.2884
22.9600 14805.2450
22.9700 15713.3566
22.9800 14895.9788
22.9900 14808.9314
23.0000 14992.4692
23.0100 15418.1916
23.0200 15647.3074
23.0300 15305.4606
23.0400 14723.5290
23.0500 15563.1286
23.0600 14786.1776
23.0700 14900.8372
23.0800 15411.7412
23.0900 13926.6612
23.1000 13970.7388
23.1100 13865.7034
23.1200 14482.0668
23.1300 14492.9138
23.1400 14272.5504
23.1500 13414.9598
23.1600 13657.0476
23.1700 14262.3810
23.1800 13978.1992
23.1900 13702.2360
23.2000 13607.6050
23.2100 13068.6126
23.2200 12914.8926
23.2300 13032.2184
23.2400 13682.8186
23.2500 14285.8318
23.2600 13541.2832
23.2700 13572.2798
23.2800 13389.5000
23.2900 14310.2396
23.3000 13237.6130
23.3100 13357.2632
23.3200 13740.3208
23.3300 13787.7044
23.3400 14332.6996
23.3500 14876.6358
23.3600 14057.4708
23.3700 13964.9964
23.3800 14311.9608
23.3900 14851.9500
23.4000 14187.3840
23.4100 13817.3228
23.4200 12998.5952
23.4300 14125.7772
23.4400 14369.3410
23.4500 15127.6632
23.4600 14962.0646
23.4700 15221.9066
23.4800 14305.7840
23.4900 14845.5150
23.5000 14262.2934
23.5100 15703.2928
23.5200 14418.3788
23.5300 14903.1708
23.5400 14916.5558
23.5500 15953.6610
23.5600 15993.5720
23.5700 15140.1102
23.5800 15547.0816
23.5900 14560.5590
23.6000 15328.6732
23.6100 15141.1560
23.6200 15277.8238
23.6300 15535.9812
23.6400 16069.4966
23.6500 17172.5260
23.6600 16542.9148
23.6700 17312.2518
23.6800 17861.3790
23.6900 18239.3352
23.7000 18058.9070
23.7100 19237.4654
23.7200 19669.0450
23.7300 20703.3264
23.7400 21910.9252
23.7500 22229.1952
23.7600 22107.9570
23.7700 24135.5346
23.7800 23893.4896
23.7900 26513.5274
23.8000 26889.9394
23.8100 28711.6190
23.8200 29638.3790
23.8300 30494.4824
23.8400 32172.0926
23.8500 32319.8324
23.8600 34255.9244
23.8700 34562.2396
23.8800 35423.9014
23.8900 36226.3224
23.9000 37000.2278
23.9100 38701.6194
23.9200 38804.2236
23.9300 42057.1940
23.9400 41765.4826
23.9500 41754.5044
23.9600 42198.8240
23.9700 41579.4474
23.9800 40128.2470
23.9900 40606.9132
24.0000 39474.6378
24.0100 38224.2636
24.0200 37482.0800
24.0300 36157.8450
24.0400 34209.5826
24.0500 32972.9410
24.0600 30316.4022
24.0700 26984.4340
24.0800 26880.8838
24.0900 24209.2896
24.1000 23855.3610
24.1100 23300.3174
24.1200 20590.1958
24.1300 20749.4140
24.1400 18667.0796
24.1500 18156.4738
24.1600 17008.0170
24.1700 16849.3470
24.1800 16059.0098
24.1900 15987.3210
24.2000 15310.7646
24.2100 14927.9602
24.2200 14594.4774
24.2300 14268.6208
24.2400 13832.0760
24.2500 13663.9720
24.2600 14641.8986
24.2700 14182.4616
24.2800 13048.1090
24.2900 13318.7550
24.3000 13261.9486
24.3100 13201.7222
24.3200 13241.7918
24.3300 13022.7906
24.3400 12544.9412
24.3500 12023.1414
24.3600 12914.6312
24.3700 12222.9034
24.3800 12114.9190
24.3900 13559.3434
24.4000 12895.5028
24.4100 11949.6694
24.4200 12185.4756
24.4300 12819.6136
24.4400 13217.3534
24.4500 13337.1298
24.4600 13805.9020
24.4700 13656.2774
24.4800 14532.3792
24.4900 13553.6204
24.5000 14301.9064
24.5100 16037.2080
24.5200 14881.7760
24.5300 15965.1916
24.5400 16358.5338
24.5500 16696.9024
24.5600 16593.5486
24.5700 18083.6752
24.5800 17880.3162
24.5900 17884.6802
24.6000 18116.3106
24.6100 19135.2560
24.6200 19649.7254
24.6300 19186.6882
24.6400 19292.2648
24.6500 20217.5314
24.6600 21597.5952
24.6700 21210.8744
24.6800 20271.5068
24.6900 21337.6790
24.7000 21658.5958
24.7100 20831.0262
24.7200 22180.4932
24.7300 20888.5782
24.7400 20838.6740
24.7500 19997.5748
24.7600 18828.6886
24.7700 18420.1110
24.7800 18602.9684
24.7900 18808.8420
24.8000 18012.8092
24.8100 16764.5558
24.8200 17030.4952
24.8300 15782.7362
24.8400 15289.7918
24.8500 14753.4708
24.8600 13593.9332
24.8700 13580.9112
24.8800 12698.3582
24.8900 13190.6992
24.9000 12571.4936
24.9100 12132.1126
24.9200 12046.3796
24.9300 11896.2320
24.9400 11635.5122
24.9500 10827.9022
24.9600 11763.1684
24.9700 11311.4166
24.9800 10736.0382
24.9900 11244.9982
25.0000 11285.2468
25.0100 10850.1770
25.0200 11128.1524
25.0300 11150.6430
25.0400 11789.5772
25.0500 11832.5276
25.0600 11166.6860
25.0700 11317.6910
25.0800 11531.6590
25.0900 11896.8292
25.1000 12155.3722
25.1100 11400.9592
25.1200 11458.1990
25.1300 11237.0392
25.1400 12368.1040
25.1500 13192.6534
25.1600 12343.3542
25.1700 13127.6000
25.1800 12698.8740
25.1900 12999.3662
25.2000 13663.9272
25.2100 13601.4180
25.2200 13605.8360
25.2300 14205.9234
25.2400 14793.4804
25.2500 15237.8418
25.2600 14761.8092
25.2700 15090.6036
25.2800 15926.8118
25.2900 16467.4652
25.3000 16836.9884
25.3100 17227.6102
25.3200 17188.8916
25.3300 17760.5428
25.3400 16970.0592
25.3500 17764.3514
25.3600 18177.6246
25.3700 18553.5664
25.3800 18578.7516
25.3900 18055.9042
25.4000 18798.1750
25.4100 19194.3726
25.4200 18672.2290
25.4300 19787.8052
25.4400 19223.6288
25.4500 18634.4096
25.4600 18741.4592
25.4700 19776.8636
25.4800 19605.8594
25.4900 18622.3592
25.5000 18241.1764
25.5100 17718.7642
25.5200 19249.7010
25.5300 18302.8890
25.5400 18322.1884
25.5500 19215.3362
25.5600 18746.2870
25.5700 18547.5870
25.5800 17710.4166
25.5900 17937.1216
25.6000 19640.8284
25.6100 18038.2020
25.6200 18771.2910
25.6300 18413.8692
25.6400 18575.3886
25.6500 17942.9362
25.6600 18000.3744
25.6700 16737.6190
25.6800 17391.3838
25.6900 17664.8336
25.7000 18128.0314
25.7100 18216.7378
25.7200 17983.5042
25.7300 18429.8156
25.7400 17097.0316
25.7500 16927.9062
25.7600 17243.4144
25.7700 15530.5390
25.7800 16638.8916
25.7900 15885.7178
25.8000 15634.8654
25.8100 15129.8534
25.8200 14614.5508
25.8300 14668.7286
25.8400 14831.5470
25.8500 13625.2980
25.8600 13635.5784
25.8700 14039.7940
25.8800 13627.8656
25.8900 13322.9766
25.9000 12604.6834
25.9100 12919.1538
25.9200 13970.9422
25.9300 13973.9318
25.9400 13916.8732
25.9500 14026.2950
25.9600 14713.6962
25.9700 14192.2160
25.9800 14437.9984
25.9900 15209.8958
26.0000 14648.8454
26.0100 15595.6310
26.0200 15611.4908
26.0300 16161.9650
26.0400 16044.9006
26.0500 16272.5210
26.0600 17117.6290
26.0700 17896.4640
26.0800 18278.5868
26.0900 18093.4936
26.1000 19409.5784
26.1100 20070.7866
26.1200 19297.7946
26.1300 20725.6246
26.1400 19191.8314
26.1500 20595.7234
26.1600 20120.6442
26.1700 20485.9396
26.1800 20684.0536
26.1900 21526.9470
26.2000 21487.5528
26.2100 21774.5320
26.2200 20701.2208
26.2300 21088.6494
26.2400 20655.0782
26.2500 20066.8458
26.2600 18986.4462
26.2700 20078.4302
26.2800 18386.4624
26.2900 18832.5948
26.3000 18564.8662
26.3100 18875.8422
26.3200 17785.9640
26.3300 16761.3984
26.3400 16666.2588
26.3500 15549.0540
26.3600 14923.5290
26.3700 15501.9176
26.3800 14573.3530
26.3900 13528.7028
26.4000 14445.3084
26.4100 13071.1548
26.4200 12972.0724
26.4300 12413.1378
26.4400 12319.1112
26.4500 11758.7332
26.4600 12138.9842
26.4700 11663.3250
26.4800 11407.2560
26.4900 10849.6612
26.5000 11131.6182
26.5100 11702.5604
26.5200 10808.4686
26.5300 10644.6788
26.5400 10524.8180
26.5500 11054.9612
26.5600 10637.4328
26.5700 11027.4434
26.5800 11025.4212
26.5900 10677.2776
26.6000 11361.2314
26.6100 11044.5160
26.6200 11281.7292
26.6300 11027.3306
26.6400 11734.3068
26.6500 11282.4584
26.6600 11943.1772
26.6700 12098.8616
26.6800 11196.3542
26.6900 11967.5802
26.7000 12059.6314
26.7100 11066.4104
26.7200 11039.7034
26.7300 11474.3124
26.7400 11168.9056
26.7500 11823.9308
26.7600 12378.1402
26.7700 11724.6622
26.7800 11446.7580
26.7900 10702.2308
26.8000 11247.3226
26.8100 10880.9306
26.8200 10682.3740
26.8300 10034.8532
26.8400 10150.4446
26.8500 10765.9830
26.8600 10254.5970
26.8700 10280.4312
26.8800 9383.3232
26.8900 10420.5708
26.9000 9308.5174
26.9100 9447.2494
26.9200 9758.1268
26.9300 9356.5622
26.9400 9225.0468
26.9500 9831.4544
26.9600 9456.6702
26.9700 9486.4298
26.9800 9223.1272
26.9900 9169.1182
27.0000 8409.3974
27.0100 9680.7210
27.0200 9296.0846
27.0300 9364.3820
27.0400 9252.5706
27.0500 9575.8016
27.0600 9506.0170
27.0700 9824.3804
27.0800 9284.8500
27.0900 10279.7810
27.1000 9274.5270
27.1100 9673.7050
27.1200 10044.6218
27.1300 9260.3302
27.1400 9193.7082
27.1500 9755.3538
27.1600 10197.8628
27.1700 10428.0528
27.1800 11212.5000
27.1900 9770.3664
27.2000 10538.0920
27.2100 9791.9902
27.2200 10436.2192
27.2300 11080.7018
27.2400 10272.0236
27.2500 10321.9920
27.2600 11594.7214
27.2700 11033.0424
27.2800 11432.1024
27.2900 11591.4572
27.3000 11930.3090
27.3100 11106.1910
27.3200 12091.7338
27.3300 11601.3590
27.3400 11933.8002
27.3500 11373.9604
27.3600 12069.8506
27.3700 11528.1738
27.3800 11643.1518
27.3900 11190.6636
27.4000 12212.3260
27.4100 11664.4176
27.4200 10882.2632
27.4300 11245.8628
27.4400 11688.5976
27.4500 11653.5522
27.4600 11879.9296
27.4700 11126.7436
27.4800 11860.3332
27.4900 11644.5282
27.5000 10722.3846
27.5100 11402.1576
27.5200 10715.2038
27.5300 10607.3994
27.5400 10658.9426
27.5500 10449.6500
27.5600 10581.3802
27.5700 11557.3048
27.5800 10672.4946
27.5900 10419.5242
27.6000 9738.8998
27.6100 9935.8490
27.6200 10316.4866
27.6300 10958.1310
27.6400 10702.6112
27.6500 10254.0720
27.6600 10533.8612
27.6700 10015.0422
27.6800 10721.9726
27.6900 10978.1158
27.7000 10758.5836
27.7100 10231.4046
27.7200 10151.8870
27.7300 10553.5288
27.7400 11315.1580
27.7500 11506.9926
27.7600 11340.7278
27.7700 10858.5774
27.7800 11335.9884
27.7900 11241.9922
27.8000 11405.9438
27.8100 11813.8916
27.8200 12478.1138
27.8300 12494.8060
27.8400 12015.5864
27.8500 12388.8082
27.8600 12336.7960
27.8700 11846.7072
27.8800 12814.8082
27.8900 13110.0474
27.9000 13083.2570
27.9100 13029.9978
27.9200 13403.5034
27.9300 13159.4798
27.9400 14555.2256
27.9500 13559.9110
27.9600 14086.4898
27.9700 13828.6468
27.9800 14804.4708
27.9900 14398.5412
28.0000 13887.2762
28.0100 13559.7106
28.0200 15019.4072
28.0300 14906.2174
28.0400 14368.1050
28.0500 14727.4546
28.0600 15503.8666
28.0700 14586.4604
28.0800 14820.9452
28.0900 15022.1872
28.1000 15033.7432
28.1100 15172.8160
28.1200 14557.9702
28.1300 14752.5166
28.1400 14521.0440
28.1500 14534.0638
28.1600 14760.9030
28.1700 13038.0208
28.1800 13813.3484
28.1900 13467.5994
28.2000 12512.6018
28.2100 11982.5480
28.2200 12161.8082
28.2300 12642.0034
28.2400 12330.0638
28.2500 12175.6104
28.2600 12224.8016
28.2700 12120.3216
28.2800 11273.4660
28.2900 10799.8668
28.3000 11537.5326
28.3100 12085.9924
28.3200 11860.4544
28.3300 12353.6896
28.3400 12713.2212
28.3500 11952.0050
28.3600 12581.2358
28.3700 12346.0418
28.3800 12588.2192
28.3900 12683.9264
28.4000 13156.7382
28.4100 12745.3756
28.4200 12649.4690
28.4300 13090.1714
28.4400 12961.3952
28.4500 13533.4686
28.4600 13793.4672
28.4700 14227.3468
28.4800 14427.4668
28.4900 14371.6828
28.5000 14081.4046
28.5100 14557.4656
28.5200 14277.5614
28.5300 15474.3184
28.5400 15770.6878
28.5500 14092.1672
28.5600 14283.7666
28.5700 13839.1460
28.5800 13928.6296
28.5900 14604.5390
28.6000 13901.3356
28.6100 14066.6198
28.6200 13517.1844
28.6300 13134.1430
28.6400 13176.8342
28.6500 14225.4974
28.6600 13102.8748
28.6700 12777.7760
28.6800 13635.5276
28.6900 12949.0886
28.7000 12527.1210
28.7100 12512.2670
28.7200 12931.2194
28.7300 12268.0288
28.7400 12577.8738
28.7500 12716.6840
28.7600 12125.6398
28.7700 12369.7144
28.7800 12173.1446
28.7900 12910.2560
28.8000 13444.6056
28.8100 12595.4896
28.8200 12465.7094
28.8300 12313.9770
28.8400 12449.0692
28.8500 12452.6886
28.8600 11985.5560
28.8700 12912.6678
28.8800 13310.8440
28.8900 12388.2812
28.9000 13485.1430
28.9100 13112.1470
28.9200 12519.0592
28.9300 13222.8648
28.9400 13550.0824
28.9500 13066.3350
28.9600 12825.0244
28.9700 12718.2618
28.9800 13753.7802
28.9900 13010.1838
29.0000 13637.8998
29.0100 13360.9924
29.0200 13624.3460
29.0300 13273.5748
29.0400 13187.1154
29.0500 12617.2954
29.0600 13511.2926
29.0700 12733.5876
29.0800 13388.0616
29.0900 12472.8668
29.1000 12036.3394
29.1100 12522.5524
29.1200 13059.5348
29.1300 12726.9612
29.1400 12029.3600
29.1500 12352.5828
29.1600 12072.2860
29.1700 12066.3848
29.1800 11901.6602
29.1900 12057.1788
29.2000 11587.7054
29.2100 11400.8790
29.2200 11386.8326
29.2300 11581.0242
29.2400 11349.9950
29.2500 11269.7948
29.2600 11457.2428
29.2700 11455.0964
29.2800 10915.2782
29.2900 11492.0848
29.3000 10838.5356
29.3100 11689.9730
29.3200 11475.0326
29.3300 11298.7132
29.3400 11719.3664
29.3500 11536.7544
29.3600 11025.3530
29.3700 11322.0226
29.3800 12102.8228
29.3900 12401.0080
29.4000 11814.6058
29.4100 12011.2864
29.4200 13073.2382
29.4300 13192.6768
29.4400 12741.3056
29.4500 13412.4034
29.4600 13517.7256
29.4700 13739.1164
29.4800 13810.8216
29.4900 14668.1814
29.5000 13958.8572
29.5100 14277.2044
29.5200 14447.8872
29.5300 14920.4172
29.5400 15527.1760
29.5500 15450.3032
29.5600 15746.8028
29.5700 16340.7450
29.5800 16522.0336
29.5900 17775.9826
29.6000 18140.4642
29.6100 16948.6736
29.6200 18181.8868
29.6300 18580.0150
29.6400 17865.1998
29.6500 19019.2566
29.6600 19419.9362
29.6700 19892.1936
29.6800 19960.4798
29.6900 21661.9812
29.7000 20413.5660
29.7100 21818.2250
29.7200 21378.5990
29.7300 21788.0900
29.7400 21705.5928
29.7500 22009.3120
29.7600 21584.0414
29.7700 22381.6590
29.7800 21920.8068
29.7900 21971.1710
29.8000 21242.1752
29.8100 21110.7524
29.8200 20822.9878
29.8300 20543.5344
29.8400 20425.0386
29.8500 20249.7578
29.8600 19851.3652
29.8700 18877.9418
29.8800 18076.5280
29.8900 17999.0112
29.9000 17403.7456
29.9100 16780.0182
29.9200 16029.6020
29.9300 15176.9308
29.9400 15794.4560
29.9500 14667.2526
29.9600 14225.7040
29.9700 14054.3152
29.9800 13895.9168
29.9900 13465.9028
30.0000 13250.2888
30.0100 13585.5326
30.0200 12963.0178
30.0300 12631.8268
30.0400 12127.3326
30.0500 12130.1544
30.0600 11936.3962
30.0700 11705.0822
30.0800 12088.2354
30.0900 11977.3418
30.1000 12718.4458
30.1100 12709.3068
30.1200 11443.3766
30.1300 12370.1732
30.1400 12181.6600
30.1500 12765.5742
30.1600 11594.7906
30.1700 11466.9352
30.1800 11490.7400
30.1900 11058.7586
30.2000 11796.5668
30.2100 11494.7876
30.2200 12164.6658
30.2300 11519.3858
30.2400 11302.8086
30.2500 11116.8712
30.2600 10587.5498
30.2700 10336.5744
30.2800 10624.6724
30.2900 10908.0058
30.3000 9724.4252
30.3100 10002.5970
30.3200 9966.8070
30.3300 10070.6746
30.3400 9002.4678
30.3500 9361.0576
30.3600 9293.4906
30.3700 9589.5416
30.3800 10243.6676
30.3900 9930.2612
30.4000 9450.7772
30.4100 9678.3548
30.4200 9390.7562
30.4300 9833.3334
30.4400 9417.3890
30.4500 9598.1354
30.4600 9248.3652
30.4700 9664.4410
30.4800 9805.2470
30.4900 9655.8146
30.5000 9655.0792
30.5100 9610.5286
30.5200 9711.6302
30.5300 9730.6640
30.5400 10039.6636
30.5500 10078.3416
30.5600 9884.4248
30.5700 9414.0442
30.5800 9891.0910
30.5900 9737.7106
30.6000 10648.3012
30.6100 10270.5220
30.6200 10330.5522
30.6300 10594.7978
30.6400 10973.7162
30.6500 10210.4218
30.6600 11572.5636
30.6700 10781.7658
30.6800 10079.1596
30.6900 11188.7940
30.7000 11690.6168
30.7100 11988.2508
30.7200 11879.5970
30.7300 11956.9630
30.7400 11828.0202
30.7500 12673.6980
30.7600 12036.8520
30.7700 13050.8566
30.7800 13258.7056
30.7900 14330.5104
30.8000 13835.0220
30.8100 14401.9878
30.8200 13733.2712
30.8300 15113.9964
30.8400 14791.8854
30.8500 14612.3168
30.8600 15825.1760
30.8700 16103.9296
30.8800 15940.9556
30.8900 16484.7920
30.9000 17158.6018
30.9100 17463.7654
30.9200 18517.5802
30.9300 18443.3654
30.9400 19278.1778
30.9500 18054.8848
30.9600 20858.4228
30.9700 20920.9026
30.9800 21653.9938
30.9900 22006.8400
31.0000 22554.2460
31.0100 22753.0436
31.0200 24648.1160
31.0300 25639.2396
31.0400 25967.5740
31.0500 25147.1394
31.0600 27281.6224
31.0700 27809.0516
31.0800 28035.8968
31.0900 29305.2898
31.1000 28655.2998
31.1100 28844.3298
31.1200 29396.6126
31.1300 30048.7122
31.1400 30619.8608
31.1500 29987.3982
31.1600 30666.8762
31.1700 29765.5294
31.1800 30183.8644
31.1900 30637.3292
31.2000 29629.6448
31.2100 30332.6354
31.2200 29684.7920
31.2300 30106.0058
31.2400 30234.2020
31.2500 28480.4830
31.2600 26216.8722
31.2700 27577.3356
31.2800 26008.4330
31.2900 24821.6492
31.3000 23435.0524
31.3100 22954.0772
31.3200 21526.3000
31.3300 21089.2232
31.3400 21305.1940
31.3500 18977.8564
31.3600 17903.9286
31.3700 17153.4892
31.3800 16509.7504
31.3900 16518.3410
31.4000 14682.2102
31.4100 14105.9834
31.4200 13271.2850
31.4300 12541.1408
31.4400 12491.9626
31.4500 11870.0114
31.4600 10894.0318
31.4700 11075.4812
31.4800 11369.0074
31.4900 10222.7630
31.5000 10266.0116
31.5100 10534.9762
31.5200 9804.9448
31.5300 10089.7472
31.5400 10295.5210
31.5500 8987.1430
31.5600 9115.2974
31.5700 9425.5462
31.5800 10014.6688
31.5900 10182.9386
31.6000 9254.3446
31.6100 9647.2310
31.6200 9597.8302
31.6300 9463.3006
31.6400 9505.2714
31.6500 9989.0604
31.6600 9704.3254
31.6700 10207.9538
31.6800 9939.8936
31.6900 9491.0054
31.7000 9545.9472
31.7100 10219.3350
31.7200 9767.3310
31.7300 10503.9204
31.7400 10651.6622
31.7500 10362.5610
31.7600 9701.3854
31.7700 9848.6134
31.7800 10585.4096
31.7900 10379.0192
31.8000 10859.1624
31.8100 10871.4132
31.8200 11488.2934
31.8300 11227.0956
31.8400 11700.0468
31.8500 11199.6826
31.8600 11526.6470
31.8700 12011.0138
31.8800 11756.3090
31.8900 11803.9998
31.9000 11031.9824
31.9100 12352.4658
31.9200 12536.0158
31.9300 12297.7528
31.9400 12517.4580
31.9500 12059.3282
31.9600 11917.7928
31.9700 12667.1854
31.9800 12228.2644
31.9900 13109.3302
32.0000 13200.2584
32.0100 13260.5814
32.0200 13308.9324
32.0300 13852.4944
32.0400 14124.8280
32.0500 14505.6854
32.0600 13936.3006
32.0700 13743.7296
32.0800 14349.0854
32.0900 13705.3396
32.1000 13836.1084
32.1100 14402.2940
32.1200 15042.6666
32.1300 14575.0864
32.1400 15084.2682
32.1500 15249.5148
32.1600 15544.9728
32.1700 15728.9368
32.1800 14743.5568
32.1900 15939.2212
32.2000 14994.1090
32.2100 15788.8978
32.2200 16278.9724
32.2300 15420.7072
32.2400 16263.3666
32.2500 16705.0872
32.2600 16097.2574
32.2700 16343.0582
32.2800 14898.6298
32.2900 15886.0026
32.3000 16510.8408
32.3100 15412.6476
32.3200 16549.3754
32.3300 15861.3250
32.3400 16537.6954
32.3500 15933.9508
32.3600 17240.1266
32.3700 17147.1720
32.3800 17494.5922
32.3900 16990.2882
32.4000 18638.0574
32.4100 18165.6006
32.4200 17684.4624
32.4300 17476.1006
32.4400 18347.7214
32.4500 17690.8548
32.4600 17999.2086
32.4700 17235.7260
32.4800 16494.8914
32.4900 16407.0588
32.5000 16220.8578
32.5100 15856.2602
32.5200 15376.2634
32.5300 15256.8288
32.5400 14269.0378
32.5500 14280.6946
32.5600 14365.6890
32.5700 13859.3404
32.5800 12750.4374
32.5900 12173.9970
32.6000 11677.4832
32.6100 11291.3870
32.6200 11088.7542
32.6300 10820.0328
32.6400 11173.6288
32.6500 10225.1618
32.6600 10297.7590
32.6700 9913.3738
32.6800 10125.9480
32.6900 9226.4130
32.7000 10106.8370
32.7100 9671.5658
32.7200 8882.5174
32.7300 9768.4916
32.7400 9234.8856
32.7500 8860.8530
32.7600 9305.9856
32.7700 8836.9578
32.7800 8632.9030
32.7900 8778.1546
32.8000 8848.7670
32.8100 8594.6646
32.8200 9140.1804
32.8300 9004.5370
32.8400 9199.6704
32.8500 9001.6388
32.8600 9017.3218
32.8700 8495.7362
32.8800 8888.9170
32.8900 9177.5512
32.9000 9398.7916
32.9100 8035.7930
32.9200 9208.9904
32.9300 9586.7584
32.9400 9234.6974
32.9500 9278.9398
32.9600 9779.1392
32.9700 8625.6886
32.9800 8196.2066
32.9900 8855.0090
33.0000 9466.5262
33.0100 9663.7940
33.0200 9345.2636
33.0300 9183.3558
33.0400 9225.2258
33.0500 9650.5168
33.0600 9575.5158
33.0700 9662.2020
33.0800 9760.3800
33.0900 9835.5978
33.1000 9584.4818
33.1100 10291.1988
33.1200 11062.4014
33.1300 10754.9358
33.1400 10397.7996
33.1500 10329.6336
33.1600 10684.0972
33.1700 11086.9394
33.1800 10869.6716
33.1900 11438.5762
33.2000 11606.9672
33.2100 11455.9906
33.2200 12194.1356
33.2300 11671.5892
33.2400 11375.3418
33.2500 11975.9736
33.2600 11705.1962
33.2700 11636.5346
33.2800 12090.7756
33.2900 12269.1274
33.3000 11922.7926
33.3100 11443.3990
33.3200 11734.9488
33.3300 11610.5316
33.3400 11558.3190
33.3500 11801.0824
33.3600 11434.8104
33.3700 11049.0214
33.3800 10962.3402
33.3900 10788.4918
33.4000 11169.6624
33.4100 11441.0664
33.4200 12055.6040
33.4300 11760.4106
33.4400 11822.3642
33.4500 10743.9698
33.4600 11070.7734
33.4700 11395.6532
33.4800 11436.6944
33.4900 12716.1092
33.5000 11741.4114
33.5100 11163.3778
33.5200 11898.6908
33.5300 12019.1936
33.5400 12016.6798
33.5500 12348.8160
33.5600 12974.4792
33.5700 12597.1048
33.5800 12930.2510
33.5900 13570.8516
33.6000 13190.3544
33.6100 13842.4500
33.6200 14137.5540
33.6300 15136.4106
33.6400 14636.5520
33.6500 15059.4106
33.6600 15210.0566
33.6700 16576.9246
33.6800 15955.4178
33.6900 16204.2196
33.7000 16756.1584
33.7100 17829.0120
33.7200 18348.2320
33.7300 18472.2574
33.7400 20195.5546
33.7500 21085.7320
33.7600 20623.2808
33.7700 20596.6206
33.7800 22020.1010
33.7900 22589.9882
33.8000 22575.4536
33.8100 22817.5048
33.8200 24265.1246
33.8300 24999.1800
33.8400 25267.4236
33.8500 24271.5474
33.8600 25502.1200
33.8700 27144.2586
33.8800 26597.9900
33.8900 27005.3710
33.9000 27012.6220
33.9100 28085.9822
33.9200 28706.4840
33.9300 28596.4966
33.9400 27385.0770
33.9500 27098.1080
33.9600 27098.0612
33.9700 26342.1284
33.9800 26718.1416
33.9900 27832.8206
34.0000 25366.0360
34.0100 24417.0248
34.0200 24752.0670
34.0300 22649.9614
34.0400 22106.0546
34.0500 22818.3878
34.0600 21943.5710
34.0700 20315.8814
34.0800 19202.4760
34.0900 19845.9738
34.1000 18495.9838
34.1100 17920.6624
34.1200 17490.0716
34.1300 17177.5512
34.1400 16929.8258
34.1500 16306.7546
34.1600 16336.0922
34.1700 15758.3760
34.1800 14896.4050
34.1900 15515.6372
34.2000 16013.7644
34.2100 15752.0650
34.2200 15603.0162
34.2300 15544.2292
34.2400 15044.1986
34.2500 15572.4772
34.2600 14797.2808
34.2700 15724.7020
34.2800 16326.4912
34.2900 15893.0980
34.3000 15614.9668
34.3100 14965.6942
34.3200 14791.0910
34.3300 14769.0490
34.3400 15487.4654
34.3500 14443.0460
34.3600 14774.4518
34.3700 15542.0024
34.3800 14842.7408
34.3900 14684.4168
34.4000 14080.2104
34.4100 14017.6066
34.4200 14363.8834
34.4300 13793.6462
34.4400 14999.2614
34.4500 14715.0746
34.4600 14267.6778
34.4700 13775.1862
34.4800 14209.2356
34.4900 13893.4702
34.5000 14877.6480
34.5100 14805.9550
34.5200 14983.1268
34.5300 15329.5146
34.5400 15008.7454
34.5500 15699.5870
34.5600 14995.8658
34.5700 15822.5790
34.5800 16465.1926
34.5900 17074.1964
34.6000 16647.5392
34.6100 16539.1002
34.6200 16383.4604
34.6300 17406.4332
34.6400 17373.2382
34.6500 18600.3702
34.6600 17734.8186
34.6700 18628.8228
34.6800 19503.0944
34.6900 19109.0190
34.7000 18501.4812
34.7100 19263.9832
34.7200 19486.4542
34.7300 19268.3980
34.7400 18369.9016
34.7500 19703.7516
34.7600 18642.4622
34.7700 18684.9142
34.7800 18356.4208
34.7900 18804.8666
34.8000 17178.8880
34.8100 17274.6236
34.8200 17093.4936
34.8300 16428.7466
34.8400 15024.9704
34.8500 14769.3014
34.8600 14161.6546
34.8700 14194.3736
34.8800 13767.6392
34.8900 12286.1776
34.9000 12617.4814
34.9100 11965.3646
34.9200 11586.5498
34.9300 11193.8274
34.9400 10942.4266
34.9500 10333.7300
34.9600 10676.7354
34.9700 10774.8942
34.9800 10080.0008
34.9900 9086.7034
35.0000 9777.6764
35.0100 8344.5164
35.0200 9211.7992
35.0300 9800.1180
35.0400 8665.5416
35.0500 9079.8442
35.0600 8482.1294
35.0700 8630.1228
35.0800 8547.7976
35.0900 9043.0136
35.1000 8800.0976
35.1100 8679.4352
35.1200 8344.7550
35.1300 8168.8528
35.1400 8216.0426
35.1500 8589.8092
35.1600 8742.8844
35.1700 8281.8018
35.1800 8147.6110
35.1900 8448.2082
35.2000 8233.6878
35.2100 8393.6950
35.2200 8289.8036
35.2300 8430.4896
35.2400 8681.9164
35.2500 8533.6690
35.2600 8276.6962
35.2700 8382.0110
35.2800 8388.5234
35.2900 8559.5794
35.3000 8579.2990
35.3100 8250.0478
35.3200 8080.2150
35.3300 8311.8082
35.3400 7936.4674
35.3500 7641.6942
35.3600 8289.8194
35.3700 7831.9662
35.3800 8241.3828
35.3900 7699.7702
35.4000 8627.6510
35.4100 8188.1796
35.4200 8130.7698
35.4300 7700.3246
35.4400 8392.1514
35.4500 8376.7110
35.4600 8447.6740
35.4700 8458.6620
35.4800 9064.0706
35.4900 8078.9302
35.5000 8214.8330
35.5100 9102.0782
35.5200 8851.3764
35.5300 9402.3640
35.5400 8996.4528
35.5500 9194.8416
35.5600 9401.7496
35.5700 9223.3286
35.5800 9503.4708
35.5900 9681.1106
35.6000 10627.7944
35.6100 9856.8350
35.6200 10305.0650
35.6300 10481.7820
35.6400 10733.3770
35.6500 11306.9794
35.6600 11228.8320
35.6700 10240.3504
35.6800 10977.2014
35.6900 11627.8676
35.7000 11751.2644
35.7100 11729.9926
35.7200 12082.3720
35.7300 12326.2360
35.7400 12233.5266
35.7500 12955.6204
35.7600 11903.4464
35.7700 12200.1160
35.7800 11714.6708
35.7900 12195.1416
35.8000 13444.5588
35.8100 12384.5246
35.8200 11871.7854
35.8300 12603.6244
35.8400 12046.4874
35.8500 12220.5352
35.8600 12107.0566
35.8700 12214.3494
35.8800 12370.6512
35.8900 11364.7522
35.9000 11945.8750
35.9100 11068.9422
35.9200 11391.7430
35.9300 10883.6660
35.9400 11045.8312
35.9500 11083.0332
35.9600 9979.0150
35.9700 9709.5856
35.9800 10192.4428
35.9900 10424.8260
36.0000 10543.5832
36.0100 9904.2236
36.0200 9306.8420
36.0300 8692.5670
36.0400 8941.4338
36.0500 9155.7750
36.0600 8921.0704
36.0700 9504.8584
36.0800 9002.6368
36.0900 8844.2240
36.1000 9250.1658
36.1100 9210.6068
36.1200 9185.3464
36.1300 8934.9650
36.1400 8782.1238
36.1500 9520.9788
36.1600 8986.2742
36.1700 8922.1202
36.1800 8978.2410
36.1900 9153.1546
36.2000 9041.6626
36.2100 9042.1448
36.2200 9240.6352
36.2300 9274.0754
36.2400 8929.9744
36.2500 8479.9860
36.2600 9392.9546
36.2700 9165.8610
36.2800 9306.2072
36.2900 8980.5990
36.3000 10120.0542
36.3100 9371.0550
36.3200 9484.3312
36.3300 10077.2878
36.3400 10378.4332
36.3500 9690.8956
36.3600 10857.0872
36.3700 9976.5136
36.3800 9703.2012
36.3900 9851.6348
36.4000 9716.7878
36.4100 10290.1896
36.4200 10381.3752
36.4300 10261.1938
36.4400 10082.5256
36.4500 10441.5090
36.4600 10475.8504
36.4700 10106.3060
36.4800 10369.8884
36.4900 10677.7252
36.5000 9897.1598
36.5100 10365.2354
36.5200 10831.0760
36.5300 9866.3818
36.5400 9333.1432
36.5500 9458.6568
36.5600 9956.5836
36.5700 10204.6834
36.5800 10169.7826
36.5900 10338.4532
36.6000 9620.5068
36.6100 9764.8530
36.6200 9821.5780
36.6300 9750.2676
36.6400 9366.3158
36.6500 9569.5760
36.6600 10470.4966
36.6700 9841.2252
36.6800 10020.3176
36.6900 10310.8124
36.7000 9526.6448
36.7100 9848.9674
36.7200 10393.8406
36.7300 10010.5224
36.7400 10698.4986
36.7500 10446.3582
36.7600 10659.8592
36.7700 11265.5426
36.7800 11548.4954
36.7900 11712.9506
36.8000 11852.3112
36.8100 12020.4986
36.8200 11856.6294
36.8300 10596.1842
36.8400 11860.4432
36.8500 13190.6066
36.8600 12904.8380
36.8700 12901.9644
36.8800 14090.8010
36.8900 14001.6002
36.9000 14210.6466
36.9100 14394.4010
36.9200 15847.8018
36.9300 14225.6164
36.9400 14121.3612
36.9500 14361.5600
36.9600 15693.6330
36.9700 15497.8118
36.9800 15406.0954
36.9900 15368.0572
37.0000 15943.2312
37.0100 15565.9048
37.0200 15525.7304
37.0300 15146.0968
37.0400 14853.2522
37.0500 15394.8924
37.0600 14978.5166
37.0700 15293.8202
37.0800 15302.4790
37.0900 14059.1014
37.1000 14123.9462
37.1100 14097.3510
37.1200 14112.3912
37.1300 13555.3446
37.1400 13147.4946
37.1500 12658.3954
37.1600 12288.1866
37.1700 13056.4168
37.1800 13053.0030
37.1900 12540.1916
37.2000 12050.7486
37.2100 11671.7122
37.2200 11193.1814
37.2300 10709.8754
37.2400 10502.7852
37.2500 11005.5512
37.2600 10301.3672
37.2700 9854.1036
37.2800 9526.5290
37.2900 10598.2504
37.3000 9770.8008
37.3100 9294.5384
37.3200 9517.8944
37.3300 9079.3690
37.3400 9322.3064
37.3500 9390.4318
37.3600 8995.0022
37.3700 8855.5358
37.3800 9016.7938
37.3900 9553.9164
37.4000 9264.2944
37.4100 9012.0676
37.4200 8802.8036
37.4300 8792.8578
37.4400 8622.0316
37.4500 8399.8846
37.4600 8901.6550
37.4700 8284.1294
37.4800 8655.3192
37.4900 9075.8708
37.5000 8366.5604
37.5100 9033.4900
37.5200 8200.9878
37.5300 8735.5490
37.5400 8886.6638
37.5500 8550.2472
37.5600 8245.3670
37.5700 8137.7258
37.5800 8516.5136
37.5900 8651.4536
37.6000 8487.0550
37.6100 8317.9724
37.6200 7915.4684
37.6300 7972.1406
37.6400 7822.8618
37.6500 8595.7296
37.6600 8370.9126
37.6700 7966.9082
37.6800 7686.5280
37.6900 8445.1924
37.7000 8383.9656
37.7100 8086.8892
37.7200 8324.7406
37.7300 8582.5144
37.7400 8060.1182
37.7500 8677.9612
37.7600 8368.6900
37.7700 8349.3392
37.7800 8292.4592
37.7900 8662.4858
37.8000 8842.6046
37.8100 8197.2574
37.8200 8693.1172
37.8300 8661.0666
37.8400 8371.4996
37.8500 8820.6370
37.8600 9022.2300
37.8700 8701.5524
37.8800 9562.8530
37.8900 9405.4046
37.9000 8919.0430
37.9100 8999.9918
37.9200 8783.5428
37.9300 9464.3524
37.9400 9210.8164
37.9500 9722.7092
37.9600 9625.8952
37.9700 9358.8500
37.9800 10042.4194
37.9900 9833.8674
38.0000 10448.5026
38.0100 9750.4160
38.0200 10221.0510
38.0300 10470.7682
38.0400 10787.2254
38.0500 10246.4010
38.0600 10435.5052
38.0700 9978.5410
38.0800 10745.4916
38.0900 10992.3066
38.1000 11072.1282
38.1100 10305.9520
38.1200 11001.6144
38.1300 10585.7330
38.1400 11533.0394
38.1500 11244.7490
38.1600 10579.4952
38.1700 11494.3930
38.1800 10762.2426
38.1900 11984.0882
38.2000 11562.2456
38.2100 11167.9790
38.2200 10895.0694
38.2300 11357.5124
38.2400 10659.2814
38.2500 11362.5346
38.2600 11391.1448
38.2700 11140.5802
38.2800 11259.8694
38.2900 11570.2290
38.3000 11870.1232
38.3100 11575.7832
38.3200 11872.5260
38.3300 11899.8068
38.3400 11691.9688
38.3500 12027.1556
38.3600 11108.6944
38.3700 11181.0618
38.3800 11699.5320
38.3900 11962.2396
38.4000 11554.4638
38.4100 12789.7990
38.4200 12499.0804
38.4300 12552.4790
38.4400 12687.4482
38.4500 11868.4418
38.4600 11330.7496
38.4700 12495.4346
38.4800 11816.8376
38.4900 11948.8750
38.5000 12191.5456
38.5100 12332.7780
38.5200 12305.9702
38.5300 11034.9742
38.5400 11145.5830
38.5500 11065.1368
38.5600 11186.3526
38.5700 10817.4520
38.5800 10139.5936
38.5900 10942.4602
38.6000 10119.0338
38.6100 10452.0620
38.6200 10162.4308
38.6300 9632.9996
38.6400 9234.9456
38.6500 9111.7320
38.6600 9298.8160
38.6700 8916.1366
38.6800 9785.1816
38.6900 8715.5070
38.7000 8131.5984
38.7100 8633.6374
38.7200 7753.3560
38.7300 8582.1930
38.7400 9039.1144
38.7500 7907.1568
38.7600 8243.6448
38.7700 8445.6044
38.7800 8234.8038
38.7900 8637.7980
38.8000 8077.0646
38.8100 7941.8512
38.8200 8264.3306
38.8300 8195.9966
38.8400 8252.2104
38.8500 8255.1646
38.8600 7973.1242
38.8700 8221.1452
38.8800 7615.0258
38.8900 8271.7432
38.9000 7958.6008
38.9100 7563.7888
38.9200 7823.1680
38.9300 8498.6410
38.9400 7993.8390
38.9500 8140.1088
38.9600 8057.7072
38.9700 8278.1708
38.9800 7918.3034
38.9900 7752.0936
39.0000 7987.9344
39.0100 7630.2048
39.0200 7752.0950
39.0300 8379.1682
39.0400 8485.7092
39.0500 8385.6944
39.0600 7763.1078
39.0700 8356.5444
39.0800 8688.8824
39.0900 8236.0178
39.1000 8921.8476
39.1100 8281.6910
39.1200 8473.1232
39.1300 8801.8646
39.1400 9096.0328
39.1500 8358.0308
39.1600 8787.9436
39.1700 8721.4722
39.1800 8402.2638
39.1900 8710.7036
39.2000 8840.0614
39.2100 8396.7336
39.2200 8812.9426
39.2300 8702.5422
39.2400 8254.8350
39.2500 8635.5458
39.2600 8162.3672
39.2700 8368.9676
39.2800 8626.3376
39.2900 9685.7574
39.3000 9719.7804
39.3100 9576.9318
39.3200 9957.3588
39.3300 10076.0620
39.3400 9662.2600
39.3500 9616.8000
39.3600 10555.3986
39.3700 10205.5114
39.3800 10041.6910
39.3900 10807.3100
39.4000 10780.1116
39.4100 11290.4774
39.4200 10659.2326
39.4300 11528.4262
39.4400 11840.1022
39.4500 11518.1070
39.4600 12038.4674
39.4700 12385.6516
39.4800 13159.2386
39.4900 12804.8646
39.5000 13130.2734
39.5100 13568.2952
39.5200 13449.0052
39.5300 15324.5432
39.5400 14830.6304
39.5500 15216.7236
39.5600 14478.0844
39.5700 15265.9048
39.5800 15202.6112
39.5900 16258.2906
39.6000 16820.5730
39.6100 15605.2652
39.6200 15478.0924
39.6300 15236.5102
39.6400 16269.9198
39.6500 15694.4630
39.6600 15808.4910
39.6700 15811.3556
39.6800 15378.0620
39.6900 14798.0000
39.7000 14158.8256
39.7100 14885.5256
39.7200 14021.8028
39.7300 14780.5136
39.7400 14292.8772
39.7500 13714.1714
39.7600 13315.5222
39.7700 12418.9788
39.7800 11951.1160
39.7900 12984.2366
39.8000 12111.8530
39.8100 11899.3550
39.8200 11521.4224
39.8300 12898.2636
39.8400 11895.2780
39.8500 11063.5070
39.8600 11221.5038
39.8700 10834.2946
39.8800 10523.1160
39.8900 10089.5274
39.9000 10184.6558
39.9100 10256.7312
39.9200 10232.1300
39.9300 10508.2032
39.9400 9894.7714
39.9500 9813.6372
39.9600 9940.9922
39.9700 9765.6200
39.9800 9593.2362
39.9900 9529.7302
40.0000 10102.8860
